
  ZVRE, 2.05

  stimulus-start        ; stimulus-stop       ; stimulus-unit       ; nof-points; parameter-type; impedance-ohm
  6.10000000000E+07     ; 6.40000000000E+07   ; Hz                  ; 1601      ; S11           ; 50        

  conversion            ; time-domain         ; data-format         ; param-unit; smoothing     ; trace-math
  S                     ; none                ; RI                  ; none      ; none          ; none

  sweep-mode-type       ; notlinear-meas-mode 
  FUNDAMENTAL           ; none                


  freq              ;  reS11        ; imS11         
   6.10000000000E+07; -0.480089     ;-0.848574     
   6.10018750000E+07; -0.481093     ;-0.841338     
   6.10037500000E+07; -0.478245     ;-0.842084     
   6.10056250000E+07; -0.481425     ;-0.841566     
   6.10075000000E+07; -0.484593     ;-0.838683     
   6.10093750000E+07; -0.482537     ;-0.839191     
   6.10112500000E+07; -0.483874     ;-0.839134     
   6.10131250000E+07; -0.484548     ;-0.83754      
   6.10150000000E+07; -0.483929     ;-0.83458      
   6.10168750000E+07; -0.485923     ;-0.838098     
   6.10187500000E+07; -0.486809     ;-0.836999     
   6.10206250000E+07; -0.488489     ;-0.835956     
   6.10225000000E+07; -0.490172     ;-0.835513     
   6.10243750000E+07; -0.488111     ;-0.834726     
   6.10262500000E+07; -0.490483     ;-0.834943     
   6.10281250000E+07; -0.490487     ;-0.83316      
   6.10300000000E+07; -0.492376     ;-0.833672     
   6.10318750000E+07; -0.493533     ;-0.833826     
   6.10337500000E+07; -0.496115     ;-0.83107      
   6.10356250000E+07; -0.495783     ;-0.831201     
   6.10375000000E+07; -0.493404     ;-0.829483     
   6.10393750000E+07; -0.495996     ;-0.829488     
   6.10412500000E+07; -0.496462     ;-0.830324     
   6.10431250000E+07; -0.496837     ;-0.829009     
   6.10450000000E+07; -0.497885     ;-0.828902     
   6.10468750000E+07; -0.499841     ;-0.826639     
   6.10487500000E+07; -0.500926     ;-0.827265     
   6.10506250000E+07; -0.502138     ;-0.825046     
   6.10525000000E+07; -0.501896     ;-0.824777     
   6.10543750000E+07; -0.504974     ;-0.827324     
   6.10562500000E+07; -0.505444     ;-0.826833     
   6.10581250000E+07; -0.50739      ;-0.82598      
   6.10600000000E+07; -0.506864     ;-0.825609     
   6.10618750000E+07; -0.507552     ;-0.823254     
   6.10637500000E+07; -0.508126     ;-0.823963     
   6.10656250000E+07; -0.50826      ;-0.82051      
   6.10675000000E+07; -0.510832     ;-0.82349      
   6.10693750000E+07; -0.508094     ;-0.820037     
   6.10712500000E+07; -0.512334     ;-0.823427     
   6.10731250000E+07; -0.511377     ;-0.821115     
   6.10750000000E+07; -0.513562     ;-0.822434     
   6.10768750000E+07; -0.515777     ;-0.81823      
   6.10787500000E+07; -0.514947     ;-0.819912     
   6.10806250000E+07; -0.515589     ;-0.818889     
   6.10825000000E+07; -0.516812     ;-0.817762     
   6.10843750000E+07; -0.516944     ;-0.817056     
   6.10862500000E+07; -0.517379     ;-0.814935     
   6.10881250000E+07; -0.518981     ;-0.814604     
   6.10900000000E+07; -0.518818     ;-0.814591     
   6.10918750000E+07; -0.521269     ;-0.8163       
   6.10937500000E+07; -0.522959     ;-0.813582     
   6.10956250000E+07; -0.521002     ;-0.816158     
   6.10975000000E+07; -0.52448      ;-0.812146     
   6.10993750000E+07; -0.525588     ;-0.812013     
   6.11012500000E+07; -0.524807     ;-0.812115     
   6.11031250000E+07; -0.525302     ;-0.810615     
   6.11050000000E+07; -0.526626     ;-0.810751     
   6.11068750000E+07; -0.527842     ;-0.813183     
   6.11087500000E+07; -0.529        ;-0.810863     
   6.11106250000E+07; -0.532614     ;-0.809583     
   6.11125000000E+07; -0.530048     ;-0.807835     
   6.11143750000E+07; -0.528997     ;-0.808546     
   6.11162500000E+07; -0.533737     ;-0.808174     
   6.11181250000E+07; -0.530778     ;-0.806562     
   6.11200000000E+07; -0.532696     ;-0.805793     
   6.11218750000E+07; -0.534717     ;-0.80579      
   6.11237500000E+07; -0.534341     ;-0.805784     
   6.11256250000E+07; -0.534767     ;-0.809161     
   6.11275000000E+07; -0.536759     ;-0.803705     
   6.11293750000E+07; -0.540927     ;-0.803909     
   6.11312500000E+07; -0.53931      ;-0.802664     
   6.11331250000E+07; -0.541294     ;-0.803274     
   6.11350000000E+07; -0.538825     ;-0.800915     
   6.11368750000E+07; -0.540677     ;-0.801129     
   6.11387500000E+07; -0.540988     ;-0.798109     
   6.11406250000E+07; -0.543598     ;-0.80107      
   6.11425000000E+07; -0.542414     ;-0.801757     
   6.11443750000E+07; -0.544177     ;-0.799019     
   6.11462500000E+07; -0.5463       ;-0.797565     
   6.11481250000E+07; -0.546398     ;-0.799114     
   6.11500000000E+07; -0.546525     ;-0.79707      
   6.11518750000E+07; -0.549282     ;-0.797351     
   6.11537500000E+07; -0.54578      ;-0.796312     
   6.11556250000E+07; -0.54855      ;-0.795008     
   6.11575000000E+07; -0.54934      ;-0.794331     
   6.11593750000E+07; -0.549893     ;-0.794818     
   6.11612500000E+07; -0.551166     ;-0.793384     
   6.11631250000E+07; -0.552951     ;-0.793238     
   6.11650000000E+07; -0.553717     ;-0.794827     
   6.11668750000E+07; -0.555177     ;-0.791224     
   6.11687500000E+07; -0.556892     ;-0.791491     
   6.11706250000E+07; -0.554372     ;-0.789638     
   6.11725000000E+07; -0.555669     ;-0.790434     
   6.11743750000E+07; -0.557448     ;-0.79029      
   6.11762500000E+07; -0.558038     ;-0.791601     
   6.11781250000E+07; -0.561895     ;-0.78644      
   6.11800000000E+07; -0.562538     ;-0.788261     
   6.11818750000E+07; -0.562648     ;-0.786996     
   6.11837500000E+07; -0.563717     ;-0.786687     
   6.11856250000E+07; -0.563199     ;-0.786156     
   6.11875000000E+07; -0.564653     ;-0.784682     
   6.11893750000E+07; -0.565504     ;-0.786838     
   6.11912500000E+07; -0.566247     ;-0.783248     
   6.11931250000E+07; -0.568657     ;-0.785062     
   6.11950000000E+07; -0.567815     ;-0.782269     
   6.11968750000E+07; -0.570844     ;-0.783208     
   6.11987500000E+07; -0.565549     ;-0.780325     
   6.12006250000E+07; -0.567529     ;-0.780854     
   6.12025000000E+07; -0.569681     ;-0.778339     
   6.12043750000E+07; -0.57052      ;-0.782419     
   6.12062500000E+07; -0.572638     ;-0.779832     
   6.12081250000E+07; -0.573837     ;-0.77835      
   6.12100000000E+07; -0.575459     ;-0.777433     
   6.12118750000E+07; -0.575452     ;-0.77772      
   6.12137500000E+07; -0.576016     ;-0.775007     
   6.12156250000E+07; -0.576897     ;-0.776722     
   6.12175000000E+07; -0.576821     ;-0.775239     
   6.12193750000E+07; -0.577763     ;-0.777567     
   6.12212500000E+07; -0.579417     ;-0.773589     
   6.12231250000E+07; -0.580096     ;-0.776451     
   6.12250000000E+07; -0.580323     ;-0.772146     
   6.12268750000E+07; -0.580317     ;-0.770862     
   6.12287500000E+07; -0.581765     ;-0.772998     
   6.12306250000E+07; -0.582685     ;-0.769273     
   6.12325000000E+07; -0.584437     ;-0.770463     
   6.12343750000E+07; -0.583661     ;-0.770641     
   6.12362500000E+07; -0.584418     ;-0.768929     
   6.12381250000E+07; -0.585023     ;-0.768097     
   6.12400000000E+07; -0.586314     ;-0.769424     
   6.12418750000E+07; -0.587005     ;-0.766705     
   6.12437500000E+07; -0.58772      ;-0.767879     
   6.12456250000E+07; -0.589473     ;-0.76644      
   6.12475000000E+07; -0.593792     ;-0.764582     
   6.12493750000E+07; -0.591679     ;-0.76372      
   6.12512500000E+07; -0.589694     ;-0.763212     
   6.12531250000E+07; -0.589577     ;-0.761968     
   6.12550000000E+07; -0.594691     ;-0.764086     
   6.12568750000E+07; -0.596087     ;-0.759807     
   6.12587500000E+07; -0.597955     ;-0.760372     
   6.12606250000E+07; -0.592972     ;-0.759001     
   6.12625000000E+07; -0.595647     ;-0.761193     
   6.12643750000E+07; -0.597773     ;-0.76151      
   6.12662500000E+07; -0.597136     ;-0.759764     
   6.12681250000E+07; -0.598695     ;-0.759343     
   6.12700000000E+07; -0.600851     ;-0.758328     
   6.12718750000E+07; -0.60167      ;-0.757247     
   6.12737500000E+07; -0.600222     ;-0.755792     
   6.12756250000E+07; -0.601183     ;-0.753817     
   6.12775000000E+07; -0.605149     ;-0.754584     
   6.12793750000E+07; -0.606265     ;-0.753877     
   6.12812500000E+07; -0.606363     ;-0.75346      
   6.12831250000E+07; -0.605617     ;-0.752705     
   6.12850000000E+07; -0.604917     ;-0.752708     
   6.12868750000E+07; -0.607711     ;-0.751672     
   6.12887500000E+07; -0.607609     ;-0.75455      
   6.12906250000E+07; -0.609895     ;-0.74885      
   6.12925000000E+07; -0.610307     ;-0.749298     
   6.12943750000E+07; -0.608674     ;-0.748311     
   6.12962500000E+07; -0.610532     ;-0.748517     
   6.12981250000E+07; -0.615277     ;-0.748146     
   6.13000000000E+07; -0.611624     ;-0.746013     
   6.13018750000E+07; -0.612736     ;-0.746521     
   6.13037500000E+07; -0.613807     ;-0.745749     
   6.13056250000E+07; -0.617588     ;-0.745285     
   6.13075000000E+07; -0.614535     ;-0.743392     
   6.13093750000E+07; -0.615282     ;-0.74293      
   6.13112500000E+07; -0.618344     ;-0.744576     
   6.13131250000E+07; -0.617323     ;-0.742803     
   6.13150000000E+07; -0.619133     ;-0.742574     
   6.13168750000E+07; -0.620476     ;-0.740986     
   6.13187500000E+07; -0.622306     ;-0.741488     
   6.13206250000E+07; -0.620284     ;-0.739468     
   6.13225000000E+07; -0.621822     ;-0.737183     
   6.13243750000E+07; -0.623143     ;-0.740632     
   6.13262500000E+07; -0.622717     ;-0.738422     
   6.13281250000E+07; -0.625517     ;-0.738015     
   6.13300000000E+07; -0.624175     ;-0.736909     
   6.13318750000E+07; -0.626712     ;-0.735918     
   6.13337500000E+07; -0.626486     ;-0.736441     
   6.13356250000E+07; -0.62918      ;-0.735981     
   6.13375000000E+07; -0.628029     ;-0.733901     
   6.13393750000E+07; -0.630513     ;-0.734816     
   6.13412500000E+07; -0.629638     ;-0.733908     
   6.13431250000E+07; -0.630548     ;-0.729393     
   6.13450000000E+07; -0.633327     ;-0.729423     
   6.13468750000E+07; -0.633564     ;-0.73074      
   6.13487500000E+07; -0.634694     ;-0.728743     
   6.13506250000E+07; -0.635165     ;-0.728138     
   6.13525000000E+07; -0.632726     ;-0.72872      
   6.13543750000E+07; -0.634828     ;-0.727273     
   6.13562500000E+07; -0.636166     ;-0.72626      
   6.13581250000E+07; -0.637661     ;-0.725939     
   6.13600000000E+07; -0.637815     ;-0.724594     
   6.13618750000E+07; -0.638116     ;-0.725377     
   6.13637500000E+07; -0.639491     ;-0.723507     
   6.13656250000E+07; -0.639679     ;-0.723124     
   6.13675000000E+07; -0.64107      ;-0.722419     
   6.13693750000E+07; -0.642538     ;-0.723725     
   6.13712500000E+07; -0.643494     ;-0.719763     
   6.13731250000E+07; -0.643901     ;-0.720435     
   6.13750000000E+07; -0.642811     ;-0.720239     
   6.13768750000E+07; -0.644854     ;-0.719311     
   6.13787500000E+07; -0.646861     ;-0.717489     
   6.13806250000E+07; -0.64659      ;-0.716129     
   6.13825000000E+07; -0.647917     ;-0.716268     
   6.13843750000E+07; -0.649703     ;-0.71512      
   6.13862500000E+07; -0.645892     ;-0.715347     
   6.13881250000E+07; -0.649011     ;-0.714676     
   6.13900000000E+07; -0.650006     ;-0.713109     
   6.13918750000E+07; -0.648854     ;-0.714369     
   6.13937500000E+07; -0.650761     ;-0.713241     
   6.13956250000E+07; -0.652734     ;-0.712068     
   6.13975000000E+07; -0.653591     ;-0.711705     
   6.13993750000E+07; -0.652986     ;-0.712839     
   6.14012500000E+07; -0.655161     ;-0.709971     
   6.14031250000E+07; -0.656303     ;-0.710734     
   6.14050000000E+07; -0.657855     ;-0.707404     
   6.14068750000E+07; -0.653016     ;-0.707758     
   6.14087500000E+07; -0.656355     ;-0.706614     
   6.14106250000E+07; -0.657014     ;-0.705772     
   6.14125000000E+07; -0.6585       ;-0.704337     
   6.14143750000E+07; -0.66016      ;-0.703964     
   6.14162500000E+07; -0.660765     ;-0.707968     
   6.14181250000E+07; -0.661495     ;-0.703811     
   6.14200000000E+07; -0.66072      ;-0.703107     
   6.14218750000E+07; -0.662662     ;-0.70086      
   6.14237500000E+07; -0.662163     ;-0.7022       
   6.14256250000E+07; -0.663921     ;-0.699344     
   6.14275000000E+07; -0.66461      ;-0.70093      
   6.14293750000E+07; -0.666186     ;-0.701293     
   6.14312500000E+07; -0.667283     ;-0.699069     
   6.14331250000E+07; -0.667521     ;-0.697616     
   6.14350000000E+07; -0.66836      ;-0.69777      
   6.14368750000E+07; -0.667484     ;-0.697159     
   6.14387500000E+07; -0.668837     ;-0.695818     
   6.14406250000E+07; -0.670924     ;-0.695215     
   6.14425000000E+07; -0.670667     ;-0.695115     
   6.14443750000E+07; -0.671759     ;-0.696763     
   6.14462500000E+07; -0.673036     ;-0.694448     
   6.14481250000E+07; -0.67408      ;-0.69227      
   6.14500000000E+07; -0.676479     ;-0.689244     
   6.14518750000E+07; -0.675208     ;-0.689926     
   6.14537500000E+07; -0.678139     ;-0.68987      
   6.14556250000E+07; -0.677009     ;-0.689442     
   6.14575000000E+07; -0.677829     ;-0.68802      
   6.14593750000E+07; -0.679316     ;-0.686012     
   6.14612500000E+07; -0.679111     ;-0.687278     
   6.14631250000E+07; -0.679946     ;-0.686282     
   6.14650000000E+07; -0.679994     ;-0.686077     
   6.14668750000E+07; -0.681443     ;-0.684954     
   6.14687500000E+07; -0.680781     ;-0.683146     
   6.14706250000E+07; -0.681734     ;-0.683601     
   6.14725000000E+07; -0.683814     ;-0.681689     
   6.14743750000E+07; -0.684431     ;-0.681011     
   6.14762500000E+07; -0.685122     ;-0.682175     
   6.14781250000E+07; -0.686858     ;-0.68072      
   6.14800000000E+07; -0.686729     ;-0.679975     
   6.14818750000E+07; -0.686759     ;-0.679022     
   6.14837500000E+07; -0.688567     ;-0.676529     
   6.14856250000E+07; -0.689504     ;-0.676807     
   6.14875000000E+07; -0.686769     ;-0.675842     
   6.14893750000E+07; -0.689841     ;-0.675239     
   6.14912500000E+07; -0.689931     ;-0.676392     
   6.14931250000E+07; -0.691264     ;-0.674977     
   6.14950000000E+07; -0.691139     ;-0.674963     
   6.14968750000E+07; -0.693184     ;-0.673477     
   6.14987500000E+07; -0.693249     ;-0.673001     
   6.15006250000E+07; -0.694188     ;-0.669946     
   6.15025000000E+07; -0.696246     ;-0.669911     
   6.15043750000E+07; -0.697231     ;-0.66963      
   6.15062500000E+07; -0.697067     ;-0.668763     
   6.15081250000E+07; -0.69642      ;-0.668836     
   6.15100000000E+07; -0.698148     ;-0.668146     
   6.15118750000E+07; -0.701017     ;-0.665394     
   6.15137500000E+07; -0.698579     ;-0.665552     
   6.15156250000E+07; -0.699496     ;-0.664367     
   6.15175000000E+07; -0.702032     ;-0.668547     
   6.15193750000E+07; -0.7023       ;-0.664768     
   6.15212500000E+07; -0.702293     ;-0.664155     
   6.15231250000E+07; -0.704962     ;-0.659326     
   6.15250000000E+07; -0.701786     ;-0.661993     
   6.15268750000E+07; -0.705435     ;-0.65997      
   6.15287500000E+07; -0.707018     ;-0.659633     
   6.15306250000E+07; -0.706399     ;-0.657609     
   6.15325000000E+07; -0.706238     ;-0.658132     
   6.15343750000E+07; -0.705982     ;-0.656027     
   6.15362500000E+07; -0.708661     ;-0.657624     
   6.15381250000E+07; -0.708743     ;-0.65543      
   6.15400000000E+07; -0.708751     ;-0.654482     
   6.15418750000E+07; -0.709924     ;-0.652187     
   6.15437500000E+07; -0.711412     ;-0.653882     
   6.15456250000E+07; -0.711472     ;-0.65346      
   6.15475000000E+07; -0.715005     ;-0.651413     
   6.15493750000E+07; -0.711043     ;-0.649292     
   6.15512500000E+07; -0.710201     ;-0.647067     
   6.15531250000E+07; -0.716681     ;-0.65289      
   6.15550000000E+07; -0.714773     ;-0.651299     
   6.15568750000E+07; -0.715093     ;-0.648507     
   6.15587500000E+07; -0.717254     ;-0.646599     
   6.15606250000E+07; -0.717067     ;-0.648282     
   6.15625000000E+07; -0.720595     ;-0.643609     
   6.15643750000E+07; -0.715682     ;-0.644715     
   6.15662500000E+07; -0.720603     ;-0.644247     
   6.15681250000E+07; -0.720195     ;-0.644327     
   6.15700000000E+07; -0.719945     ;-0.642885     
   6.15718750000E+07; -0.719386     ;-0.638798     
   6.15737500000E+07; -0.72158      ;-0.643007     
   6.15756250000E+07; -0.721639     ;-0.639611     
   6.15775000000E+07; -0.724801     ;-0.639372     
   6.15793750000E+07; -0.726211     ;-0.63595      
   6.15812500000E+07; -0.723044     ;-0.636891     
   6.15831250000E+07; -0.727872     ;-0.635379     
   6.15850000000E+07; -0.725375     ;-0.635244     
   6.15868750000E+07; -0.728389     ;-0.638395     
   6.15887500000E+07; -0.728875     ;-0.633792     
   6.15906250000E+07; -0.728258     ;-0.633579     
   6.15925000000E+07; -0.727831     ;-0.632774     
   6.15943750000E+07; -0.73142      ;-0.631341     
   6.15962500000E+07; -0.728135     ;-0.629444     
   6.15981250000E+07; -0.729882     ;-0.630461     
   6.16000000000E+07; -0.730749     ;-0.627313     
   6.16018750000E+07; -0.731206     ;-0.628027     
   6.16037500000E+07; -0.734247     ;-0.631523     
   6.16056250000E+07; -0.733861     ;-0.629968     
   6.16075000000E+07; -0.735023     ;-0.626135     
   6.16093750000E+07; -0.736915     ;-0.623925     
   6.16112500000E+07; -0.735492     ;-0.623721     
   6.16131250000E+07; -0.738209     ;-0.622952     
   6.16150000000E+07; -0.736357     ;-0.623194     
   6.16168750000E+07; -0.735977     ;-0.622016     
   6.16187500000E+07; -0.738025     ;-0.621107     
   6.16206250000E+07; -0.739101     ;-0.621408     
   6.16225000000E+07; -0.738999     ;-0.622096     
   6.16243750000E+07; -0.742091     ;-0.618312     
   6.16262500000E+07; -0.73977      ;-0.617634     
   6.16281250000E+07; -0.740977     ;-0.616537     
   6.16300000000E+07; -0.740134     ;-0.613514     
   6.16318750000E+07; -0.739425     ;-0.612753     
   6.16337500000E+07; -0.745774     ;-0.616905     
   6.16356250000E+07; -0.744354     ;-0.615502     
   6.16375000000E+07; -0.745877     ;-0.612767     
   6.16393750000E+07; -0.746277     ;-0.612925     
   6.16412500000E+07; -0.74838      ;-0.608664     
   6.16431250000E+07; -0.748203     ;-0.610177     
   6.16450000000E+07; -0.747512     ;-0.60891      
   6.16468750000E+07; -0.749832     ;-0.608625     
   6.16487500000E+07; -0.74779      ;-0.607399     
   6.16506250000E+07; -0.749818     ;-0.60925      
   6.16525000000E+07; -0.751564     ;-0.605811     
   6.16543750000E+07; -0.751996     ;-0.605914     
   6.16562500000E+07; -0.751753     ;-0.603914     
   6.16581250000E+07; -0.751406     ;-0.603627     
   6.16600000000E+07; -0.753874     ;-0.604321     
   6.16618750000E+07; -0.753346     ;-0.602437     
   6.16637500000E+07; -0.753991     ;-0.601033     
   6.16656250000E+07; -0.754261     ;-0.599056     
   6.16675000000E+07; -0.757952     ;-0.600423     
   6.16693750000E+07; -0.755077     ;-0.597102     
   6.16712500000E+07; -0.757109     ;-0.597727     
   6.16731250000E+07; -0.759082     ;-0.594103     
   6.16750000000E+07; -0.760211     ;-0.595912     
   6.16768750000E+07; -0.760763     ;-0.593542     
   6.16787500000E+07; -0.760715     ;-0.594696     
   6.16806250000E+07; -0.757611     ;-0.592353     
   6.16825000000E+07; -0.761223     ;-0.59404      
   6.16843750000E+07; -0.762346     ;-0.591441     
   6.16862500000E+07; -0.764721     ;-0.589808     
   6.16881250000E+07; -0.762493     ;-0.5896       
   6.16900000000E+07; -0.766147     ;-0.588354     
   6.16918750000E+07; -0.764731     ;-0.586615     
   6.16937500000E+07; -0.766022     ;-0.588437     
   6.16956250000E+07; -0.76624      ;-0.587336     
   6.16975000000E+07; -0.765067     ;-0.584931     
   6.16993750000E+07; -0.76741      ;-0.585545     
   6.17012500000E+07; -0.765192     ;-0.58365      
   6.17031250000E+07; -0.768943     ;-0.581701     
   6.17050000000E+07; -0.770104     ;-0.582035     
   6.17068750000E+07; -0.770117     ;-0.584204     
   6.17087500000E+07; -0.77014      ;-0.578112     
   6.17106250000E+07; -0.771369     ;-0.578193     
   6.17125000000E+07; -0.773376     ;-0.578773     
   6.17143750000E+07; -0.773188     ;-0.577101     
   6.17162500000E+07; -0.771048     ;-0.575812     
   6.17181250000E+07; -0.773361     ;-0.574708     
   6.17200000000E+07; -0.773078     ;-0.575015     
   6.17218750000E+07; -0.774339     ;-0.574078     
   6.17237500000E+07; -0.777073     ;-0.573921     
   6.17256250000E+07; -0.777528     ;-0.571457     
   6.17275000000E+07; -0.777068     ;-0.570957     
   6.17293750000E+07; -0.775463     ;-0.571196     
   6.17312500000E+07; -0.776166     ;-0.567957     
   6.17331250000E+07; -0.777519     ;-0.567286     
   6.17350000000E+07; -0.779797     ;-0.571223     
   6.17368750000E+07; -0.779177     ;-0.568101     
   6.17387500000E+07; -0.780805     ;-0.5667       
   6.17406250000E+07; -0.782586     ;-0.566097     
   6.17425000000E+07; -0.781291     ;-0.56298      
   6.17443750000E+07; -0.782473     ;-0.562737     
   6.17462500000E+07; -0.780942     ;-0.561672     
   6.17481250000E+07; -0.783749     ;-0.562684     
   6.17500000000E+07; -0.783866     ;-0.563966     
   6.17518750000E+07; -0.7861       ;-0.559325     
   6.17537500000E+07; -0.785181     ;-0.56023      
   6.17556250000E+07; -0.785428     ;-0.559473     
   6.17575000000E+07; -0.787503     ;-0.556881     
   6.17593750000E+07; -0.785417     ;-0.557009     
   6.17612500000E+07; -0.784918     ;-0.554757     
   6.17631250000E+07; -0.788815     ;-0.555498     
   6.17650000000E+07; -0.788043     ;-0.557163     
   6.17668750000E+07; -0.788618     ;-0.553185     
   6.17687500000E+07; -0.789733     ;-0.553067     
   6.17706250000E+07; -0.793433     ;-0.55037      
   6.17725000000E+07; -0.790349     ;-0.550553     
   6.17743750000E+07; -0.793842     ;-0.550236     
   6.17762500000E+07; -0.791857     ;-0.546803     
   6.17781250000E+07; -0.793969     ;-0.547336     
   6.17800000000E+07; -0.794179     ;-0.546287     
   6.17818750000E+07; -0.792628     ;-0.543121     
   6.17837500000E+07; -0.795996     ;-0.546392     
   6.17856250000E+07; -0.794563     ;-0.544443     
   6.17875000000E+07; -0.797074     ;-0.543618     
   6.17893750000E+07; -0.796609     ;-0.540099     
   6.17912500000E+07; -0.799181     ;-0.539469     
   6.17931250000E+07; -0.797773     ;-0.540046     
   6.17950000000E+07; -0.799721     ;-0.540434     
   6.17968750000E+07; -0.796169     ;-0.537244     
   6.17987500000E+07; -0.800092     ;-0.536235     
   6.18006250000E+07; -0.802037     ;-0.536834     
   6.18025000000E+07; -0.800295     ;-0.536008     
   6.18043750000E+07; -0.800341     ;-0.534465     
   6.18062500000E+07; -0.804304     ;-0.534573     
   6.18081250000E+07; -0.802522     ;-0.53193      
   6.18100000000E+07; -0.803716     ;-0.532025     
   6.18118750000E+07; -0.80474      ;-0.528912     
   6.18137500000E+07; -0.806941     ;-0.528647     
   6.18156250000E+07; -0.80355      ;-0.529133     
   6.18175000000E+07; -0.806875     ;-0.52958      
   6.18193750000E+07; -0.806449     ;-0.528417     
   6.18212500000E+07; -0.807149     ;-0.524792     
   6.18231250000E+07; -0.810745     ;-0.52383      
   6.18250000000E+07; -0.809803     ;-0.524215     
   6.18268750000E+07; -0.806407     ;-0.522725     
   6.18287500000E+07; -0.809668     ;-0.523583     
   6.18306250000E+07; -0.8086       ;-0.522981     
   6.18325000000E+07; -0.812026     ;-0.520276     
   6.18343750000E+07; -0.812244     ;-0.518282     
   6.18362500000E+07; -0.811784     ;-0.519211     
   6.18381250000E+07; -0.811928     ;-0.519751     
   6.18400000000E+07; -0.81453      ;-0.515661     
   6.18418750000E+07; -0.815271     ;-0.517793     
   6.18437500000E+07; -0.814206     ;-0.515602     
   6.18456250000E+07; -0.810642     ;-0.513406     
   6.18475000000E+07; -0.816039     ;-0.514105     
   6.18493750000E+07; -0.817331     ;-0.510852     
   6.18512500000E+07; -0.81946      ;-0.511425     
   6.18531250000E+07; -0.815425     ;-0.510019     
   6.18550000000E+07; -0.816686     ;-0.50942      
   6.18568750000E+07; -0.818441     ;-0.509753     
   6.18587500000E+07; -0.818207     ;-0.508641     
   6.18606250000E+07; -0.819156     ;-0.505792     
   6.18625000000E+07; -0.820958     ;-0.505333     
   6.18643750000E+07; -0.820615     ;-0.504564     
   6.18662500000E+07; -0.820758     ;-0.503278     
   6.18681250000E+07; -0.823218     ;-0.502629     
   6.18700000000E+07; -0.819161     ;-0.501865     
   6.18718750000E+07; -0.82223      ;-0.501128     
   6.18737500000E+07; -0.8233       ;-0.49932      
   6.18756250000E+07; -0.821781     ;-0.497286     
   6.18775000000E+07; -0.824167     ;-0.499064     
   6.18793750000E+07; -0.824772     ;-0.496645     
   6.18812500000E+07; -0.823763     ;-0.493219     
   6.18831250000E+07; -0.826722     ;-0.492558     
   6.18850000000E+07; -0.827199     ;-0.494887     
   6.18868750000E+07; -0.82927      ;-0.494262     
   6.18887500000E+07; -0.829051     ;-0.495373     
   6.18906250000E+07; -0.830089     ;-0.492241     
   6.18925000000E+07; -0.829372     ;-0.489379     
   6.18943750000E+07; -0.828964     ;-0.489394     
   6.18962500000E+07; -0.827881     ;-0.486431     
   6.18981250000E+07; -0.830908     ;-0.486262     
   6.19000000000E+07; -0.832572     ;-0.484025     
   6.19018750000E+07; -0.833982     ;-0.484089     
   6.19037500000E+07; -0.83186      ;-0.483606     
   6.19056250000E+07; -0.831332     ;-0.482391     
   6.19075000000E+07; -0.833463     ;-0.481271     
   6.19093750000E+07; -0.837041     ;-0.479638     
   6.19112500000E+07; -0.834833     ;-0.480023     
   6.19131250000E+07; -0.835946     ;-0.479541     
   6.19150000000E+07; -0.835807     ;-0.477952     
   6.19168750000E+07; -0.8378       ;-0.477629     
   6.19187500000E+07; -0.837207     ;-0.476059     
   6.19206250000E+07; -0.835867     ;-0.474946     
   6.19225000000E+07; -0.837967     ;-0.474237     
   6.19243750000E+07; -0.836811     ;-0.473715     
   6.19262500000E+07; -0.839507     ;-0.473438     
   6.19281250000E+07; -0.839891     ;-0.473025     
   6.19300000000E+07; -0.841654     ;-0.469813     
   6.19318750000E+07; -0.839293     ;-0.470405     
   6.19337500000E+07; -0.840083     ;-0.468754     
   6.19356250000E+07; -0.842747     ;-0.467835     
   6.19375000000E+07; -0.842032     ;-0.466273     
   6.19393750000E+07; -0.842645     ;-0.46384      
   6.19412500000E+07; -0.843123     ;-0.466552     
   6.19431250000E+07; -0.844824     ;-0.464826     
   6.19450000000E+07; -0.843766     ;-0.462181     
   6.19468750000E+07; -0.844764     ;-0.461222     
   6.19487500000E+07; -0.846911     ;-0.459983     
   6.19506250000E+07; -0.843665     ;-0.459172     
   6.19525000000E+07; -0.843621     ;-0.458572     
   6.19543750000E+07; -0.846582     ;-0.456342     
   6.19562500000E+07; -0.847253     ;-0.453493     
   6.19581250000E+07; -0.84941      ;-0.454721     
   6.19600000000E+07; -0.848125     ;-0.454847     
   6.19618750000E+07; -0.849492     ;-0.453243     
   6.19637500000E+07; -0.850457     ;-0.452843     
   6.19656250000E+07; -0.848138     ;-0.450876     
   6.19675000000E+07; -0.850359     ;-0.447929     
   6.19693750000E+07; -0.852374     ;-0.447925     
   6.19712500000E+07; -0.850263     ;-0.447278     
   6.19731250000E+07; -0.85299      ;-0.446853     
   6.19750000000E+07; -0.85409      ;-0.446409     
   6.19768750000E+07; -0.853269     ;-0.442269     
   6.19787500000E+07; -0.855672     ;-0.442402     
   6.19806250000E+07; -0.855142     ;-0.442216     
   6.19825000000E+07; -0.85509      ;-0.441659     
   6.19843750000E+07; -0.853883     ;-0.438745     
   6.19862500000E+07; -0.855088     ;-0.437892     
   6.19881250000E+07; -0.856439     ;-0.438547     
   6.19900000000E+07; -0.855671     ;-0.43862      
   6.19918750000E+07; -0.856209     ;-0.436085     
   6.19937500000E+07; -0.859773     ;-0.435005     
   6.19956250000E+07; -0.860526     ;-0.436327     
   6.19975000000E+07; -0.860146     ;-0.433653     
   6.19993750000E+07; -0.860084     ;-0.430358     
   6.20012500000E+07; -0.861675     ;-0.432273     
   6.20031250000E+07; -0.861935     ;-0.429931     
   6.20050000000E+07; -0.858205     ;-0.427246     
   6.20068750000E+07; -0.860973     ;-0.427572     
   6.20087500000E+07; -0.863684     ;-0.426937     
   6.20106250000E+07; -0.863545     ;-0.424206     
   6.20125000000E+07; -0.862219     ;-0.42472      
   6.20143750000E+07; -0.864648     ;-0.423339     
   6.20162500000E+07; -0.864847     ;-0.422761     
   6.20181250000E+07; -0.864192     ;-0.422967     
   6.20200000000E+07; -0.865695     ;-0.419614     
   6.20218750000E+07; -0.866873     ;-0.41913      
   6.20237500000E+07; -0.864799     ;-0.41682      
   6.20256250000E+07; -0.867421     ;-0.415614     
   6.20275000000E+07; -0.865425     ;-0.415657     
   6.20293750000E+07; -0.868922     ;-0.416773     
   6.20312500000E+07; -0.868842     ;-0.413875     
   6.20331250000E+07; -0.867402     ;-0.41163      
   6.20350000000E+07; -0.870147     ;-0.412272     
   6.20368750000E+07; -0.871502     ;-0.409045     
   6.20387500000E+07; -0.869565     ;-0.40908      
   6.20406250000E+07; -0.870698     ;-0.409016     
   6.20425000000E+07; -0.871763     ;-0.406971     
   6.20443750000E+07; -0.871717     ;-0.406336     
   6.20462500000E+07; -0.873601     ;-0.401892     
   6.20481250000E+07; -0.872465     ;-0.402738     
   6.20500000000E+07; -0.87421      ;-0.402997     
   6.20518750000E+07; -0.875826     ;-0.401911     
   6.20537500000E+07; -0.87397      ;-0.399712     
   6.20556250000E+07; -0.875164     ;-0.401332     
   6.20575000000E+07; -0.875687     ;-0.399365     
   6.20593750000E+07; -0.875225     ;-0.397358     
   6.20612500000E+07; -0.878127     ;-0.394838     
   6.20631250000E+07; -0.877797     ;-0.395849     
   6.20650000000E+07; -0.877684     ;-0.394029     
   6.20668750000E+07; -0.877042     ;-0.393841     
   6.20687500000E+07; -0.879945     ;-0.393007     
   6.20706250000E+07; -0.878693     ;-0.390562     
   6.20725000000E+07; -0.88057      ;-0.388047     
   6.20743750000E+07; -0.881341     ;-0.388246     
   6.20762500000E+07; -0.880275     ;-0.387813     
   6.20781250000E+07; -0.882079     ;-0.387057     
   6.20800000000E+07; -0.881571     ;-0.385715     
   6.20818750000E+07; -0.882375     ;-0.382989     
   6.20837500000E+07; -0.884056     ;-0.38145      
   6.20856250000E+07; -0.882265     ;-0.381099     
   6.20875000000E+07; -0.883467     ;-0.380242     
   6.20893750000E+07; -0.883147     ;-0.378736     
   6.20912500000E+07; -0.883611     ;-0.378473     
   6.20931250000E+07; -0.883911     ;-0.377119     
   6.20950000000E+07; -0.885546     ;-0.375009     
   6.20968750000E+07; -0.885506     ;-0.374388     
   6.20987500000E+07; -0.88287      ;-0.374102     
   6.21006250000E+07; -0.889099     ;-0.375634     
   6.21025000000E+07; -0.887008     ;-0.373214     
   6.21043750000E+07; -0.8865       ;-0.371801     
   6.21062500000E+07; -0.88663      ;-0.367483     
   6.21081250000E+07; -0.885891     ;-0.367834     
   6.21100000000E+07; -0.889211     ;-0.367064     
   6.21118750000E+07; -0.88928      ;-0.364003     
   6.21137500000E+07; -0.890499     ;-0.363673     
   6.21156250000E+07; -0.888864     ;-0.362776     
   6.21175000000E+07; -0.890116     ;-0.361966     
   6.21193750000E+07; -0.889506     ;-0.360821     
   6.21212500000E+07; -0.891868     ;-0.360349     
   6.21231250000E+07; -0.891288     ;-0.359793     
   6.21250000000E+07; -0.890466     ;-0.359561     
   6.21268750000E+07; -0.892082     ;-0.355543     
   6.21287500000E+07; -0.893266     ;-0.355641     
   6.21306250000E+07; -0.893568     ;-0.356316     
   6.21325000000E+07; -0.894386     ;-0.350289     
   6.21343750000E+07; -0.893336     ;-0.351888     
   6.21362500000E+07; -0.892964     ;-0.349646     
   6.21381250000E+07; -0.894524     ;-0.348459     
   6.21400000000E+07; -0.896184     ;-0.34852      
   6.21418750000E+07; -0.896509     ;-0.347349     
   6.21437500000E+07; -0.897211     ;-0.343882     
   6.21456250000E+07; -0.896049     ;-0.344881     
   6.21475000000E+07; -0.897334     ;-0.343554     
   6.21493750000E+07; -0.898511     ;-0.345335     
   6.21512500000E+07; -0.900575     ;-0.339573     
   6.21531250000E+07; -0.897888     ;-0.339836     
   6.21550000000E+07; -0.898296     ;-0.33854      
   6.21568750000E+07; -0.901088     ;-0.337491     
   6.21587500000E+07; -0.900695     ;-0.336041     
   6.21606250000E+07; -0.896959     ;-0.334671     
   6.21625000000E+07; -0.90146      ;-0.334904     
   6.21643750000E+07; -0.901142     ;-0.331747     
   6.21662500000E+07; -0.901493     ;-0.330422     
   6.21681250000E+07; -0.901981     ;-0.328352     
   6.21700000000E+07; -0.900374     ;-0.326752     
   6.21718750000E+07; -0.905064     ;-0.325599     
   6.21737500000E+07; -0.900188     ;-0.325347     
   6.21756250000E+07; -0.903721     ;-0.326433     
   6.21775000000E+07; -0.904913     ;-0.322123     
   6.21793750000E+07; -0.904952     ;-0.32205      
   6.21812500000E+07; -0.905712     ;-0.319304     
   6.21831250000E+07; -0.906181     ;-0.320885     
   6.21850000000E+07; -0.907258     ;-0.317488     
   6.21868750000E+07; -0.906971     ;-0.316602     
   6.21887500000E+07; -0.905348     ;-0.316245     
   6.21906250000E+07; -0.904245     ;-0.312167     
   6.21925000000E+07; -0.906368     ;-0.312487     
   6.21943750000E+07; -0.907034     ;-0.313421     
   6.21962500000E+07; -0.908406     ;-0.310181     
   6.21981250000E+07; -0.908219     ;-0.309804     
   6.22000000000E+07; -0.908183     ;-0.307594     
   6.22018750000E+07; -0.910835     ;-0.305558     
   6.22037500000E+07; -0.908901     ;-0.304482     
   6.22056250000E+07; -0.908226     ;-0.303629     
   6.22075000000E+07; -0.910673     ;-0.30496      
   6.22093750000E+07; -0.911339     ;-0.303043     
   6.22112500000E+07; -0.909609     ;-0.299802     
   6.22131250000E+07; -0.913329     ;-0.298124     
   6.22150000000E+07; -0.912444     ;-0.298483     
   6.22168750000E+07; -0.913686     ;-0.294976     
   6.22187500000E+07; -0.912797     ;-0.293695     
   6.22206250000E+07; -0.914075     ;-0.292336     
   6.22225000000E+07; -0.913581     ;-0.29042      
   6.22243750000E+07; -0.913642     ;-0.291656     
   6.22262500000E+07; -0.912658     ;-0.290018     
   6.22281250000E+07; -0.912698     ;-0.287925     
   6.22300000000E+07; -0.916158     ;-0.286109     
   6.22318750000E+07; -0.915983     ;-0.282786     
   6.22337500000E+07; -0.916685     ;-0.28227      
   6.22356250000E+07; -0.917039     ;-0.281572     
   6.22375000000E+07; -0.916663     ;-0.28151      
   6.22393750000E+07; -0.91827      ;-0.278985     
   6.22412500000E+07; -0.918045     ;-0.277701     
   6.22431250000E+07; -0.916802     ;-0.275453     
   6.22450000000E+07; -0.917359     ;-0.27406      
   6.22468750000E+07; -0.919713     ;-0.274278     
   6.22487500000E+07; -0.918534     ;-0.271596     
   6.22506250000E+07; -0.92047      ;-0.271235     
   6.22525000000E+07; -0.920925     ;-0.26995      
   6.22543750000E+07; -0.9208       ;-0.268256     
   6.22562500000E+07; -0.921736     ;-0.26655      
   6.22581250000E+07; -0.921446     ;-0.265929     
   6.22600000000E+07; -0.922642     ;-0.264698     
   6.22618750000E+07; -0.923368     ;-0.262077     
   6.22637500000E+07; -0.924469     ;-0.261976     
   6.22656250000E+07; -0.920865     ;-0.258582     
   6.22675000000E+07; -0.922186     ;-0.257351     
   6.22693750000E+07; -0.922983     ;-0.256539     
   6.22712500000E+07; -0.923483     ;-0.25634      
   6.22731250000E+07; -0.922906     ;-0.254836     
   6.22750000000E+07; -0.91968      ;-0.252158     
   6.22768750000E+07; -0.923779     ;-0.251103     
   6.22787500000E+07; -0.925256     ;-0.250525     
   6.22806250000E+07; -0.925417     ;-0.24902      
   6.22825000000E+07; -0.923705     ;-0.247161     
   6.22843750000E+07; -0.924555     ;-0.245666     
   6.22862500000E+07; -0.926578     ;-0.244063     
   6.22881250000E+07; -0.925045     ;-0.242146     
   6.22900000000E+07; -0.927236     ;-0.24096      
   6.22918750000E+07; -0.927751     ;-0.237943     
   6.22937500000E+07; -0.927885     ;-0.23569      
   6.22956250000E+07; -0.928783     ;-0.234651     
   6.22975000000E+07; -0.925706     ;-0.232563     
   6.22993750000E+07; -0.928674     ;-0.232776     
   6.23012500000E+07; -0.929947     ;-0.229295     
   6.23031250000E+07; -0.928574     ;-0.229715     
   6.23050000000E+07; -0.929288     ;-0.227738     
   6.23068750000E+07; -0.929795     ;-0.225179     
   6.23087500000E+07; -0.930128     ;-0.223517     
   6.23106250000E+07; -0.930369     ;-0.22354      
   6.23125000000E+07; -0.931963     ;-0.222406     
   6.23143750000E+07; -0.932267     ;-0.216812     
   6.23162500000E+07; -0.931371     ;-0.217383     
   6.23181250000E+07; -0.932965     ;-0.215975     
   6.23200000000E+07; -0.930835     ;-0.213683     
   6.23218750000E+07; -0.93173      ;-0.213605     
   6.23237500000E+07; -0.930178     ;-0.210856     
   6.23256250000E+07; -0.932087     ;-0.208905     
   6.23275000000E+07; -0.933668     ;-0.206995     
   6.23293750000E+07; -0.933405     ;-0.206202     
   6.23312500000E+07; -0.933346     ;-0.205428     
   6.23331250000E+07; -0.934996     ;-0.200111     
   6.23350000000E+07; -0.935025     ;-0.20085      
   6.23368750000E+07; -0.93248      ;-0.199585     
   6.23387500000E+07; -0.935739     ;-0.198372     
   6.23406250000E+07; -0.934192     ;-0.19605      
   6.23425000000E+07; -0.937463     ;-0.194297     
   6.23443750000E+07; -0.935787     ;-0.194138     
   6.23462500000E+07; -0.935887     ;-0.187973     
   6.23481250000E+07; -0.936993     ;-0.188791     
   6.23500000000E+07; -0.936174     ;-0.186968     
   6.23518750000E+07; -0.935844     ;-0.185801     
   6.23537500000E+07; -0.936638     ;-0.18352      
   6.23556250000E+07; -0.938439     ;-0.183839     
   6.23575000000E+07; -0.938399     ;-0.178992     
   6.23593750000E+07; -0.937571     ;-0.177551     
   6.23612500000E+07; -0.938934     ;-0.17594      
   6.23631250000E+07; -0.937291     ;-0.174544     
   6.23650000000E+07; -0.93984      ;-0.171656     
   6.23668750000E+07; -0.935847     ;-0.171375     
   6.23687500000E+07; -0.93887      ;-0.16934      
   6.23706250000E+07; -0.938774     ;-0.165784     
   6.23725000000E+07; -0.939755     ;-0.166787     
   6.23743750000E+07; -0.940096     ;-0.162926     
   6.23762500000E+07; -0.938982     ;-0.161945     
   6.23781250000E+07; -0.937948     ;-0.159432     
   6.23800000000E+07; -0.940241     ;-0.15817      
   6.23818750000E+07; -0.939445     ;-0.157914     
   6.23837500000E+07; -0.941381     ;-0.153487     
   6.23856250000E+07; -0.943173     ;-0.153481     
   6.23875000000E+07; -0.941279     ;-0.145911     
   6.23893750000E+07; -0.940135     ;-0.146987     
   6.23912500000E+07; -0.942035     ;-0.144602     
   6.23931250000E+07; -0.944167     ;-0.145359     
   6.23950000000E+07; -0.941837     ;-0.139991     
   6.23968750000E+07; -0.941759     ;-0.139035     
   6.23987500000E+07; -0.942535     ;-0.136951     
   6.24006250000E+07; -0.944816     ;-0.133198     
   6.24025000000E+07; -0.942525     ;-0.133461     
   6.24043750000E+07; -0.94211      ;-0.130098     
   6.24062500000E+07; -0.940865     ;-0.126716     
   6.24081250000E+07; -0.942131     ;-0.127822     
   6.24100000000E+07; -0.942839     ;-0.121736     
   6.24118750000E+07; -0.940151     ;-0.122741     
   6.24137500000E+07; -0.943332     ;-0.118433     
   6.24156250000E+07; -0.942761     ;-0.117812     
   6.24175000000E+07; -0.942696     ;-0.113328     
   6.24193750000E+07; -0.942287     ;-0.111617     
   6.24212500000E+07; -0.942975     ;-0.108027     
   6.24231250000E+07; -0.943025     ;-0.10759      
   6.24250000000E+07; -0.939687     ;-0.104254     
   6.24268750000E+07; -0.943355     ;-0.104327     
   6.24287500000E+07; -0.941802     ;-0.0990839    
   6.24306250000E+07; -0.942543     ;-0.0972366    
   6.24325000000E+07; -0.944242     ;-0.0935296    
   6.24343750000E+07; -0.943109     ;-0.0916787    
   6.24362500000E+07; -0.943916     ;-0.0901393    
   6.24381250000E+07; -0.943728     ;-0.0866059    
   6.24400000000E+07; -0.942692     ;-0.0855587    
   6.24418750000E+07; -0.943537     ;-0.0822476    
   6.24437500000E+07; -0.942479     ;-0.0791893    
   6.24456250000E+07; -0.943247     ;-0.073679     
   6.24475000000E+07; -0.943066     ;-0.0722428    
   6.24493750000E+07; -0.943442     ;-0.0712749    
   6.24512500000E+07; -0.941277     ;-0.0667133    
   6.24531250000E+07; -0.942783     ;-0.0654556    
   6.24550000000E+07; -0.941976     ;-0.0628439    
   6.24568750000E+07; -0.94123      ;-0.0585765    
   6.24587500000E+07; -0.940457     ;-0.0548108    
   6.24606250000E+07; -0.938265     ;-0.0537761    
   6.24625000000E+07; -0.939721     ;-0.0495543    
   6.24643750000E+07; -0.940451     ;-0.0459903    
   6.24662500000E+07; -0.938185     ;-0.0428748    
   6.24681250000E+07; -0.940703     ;-0.0407675    
   6.24700000000E+07; -0.939548     ;-0.0368938    
   6.24718750000E+07; -0.939802     ;-0.0342781    
   6.24737500000E+07; -0.93923      ;-0.0318173    
   6.24756250000E+07; -0.937671     ;-0.0282604    
   6.24775000000E+07; -0.938841     ;-0.0248974    
   6.24793750000E+07; -0.938817     ;-0.0197178    
   6.24812500000E+07; -0.938053     ;-0.0167921    
   6.24831250000E+07; -0.935705     ;-0.0126043    
   6.24850000000E+07; -0.937592     ;-0.00974907   
   6.24868750000E+07; -0.936357     ;-0.00658222   
   6.24887500000E+07; -0.934952     ;-0.00225385   
   6.24906250000E+07; -0.934183     ; 0.000389179  
   6.24925000000E+07; -0.932344     ; 0.00488393   
   6.24943750000E+07; -0.9314       ; 0.0100121    
   6.24962500000E+07; -0.931186     ; 0.0126654    
   6.24981250000E+07; -0.929793     ; 0.0165573    
   6.25000000000E+07; -0.929924     ; 0.0220322    
   6.25018750000E+07; -0.928387     ; 0.0257283    
   6.25037500000E+07; -0.927375     ; 0.0292671    
   6.25056250000E+07; -0.928433     ; 0.0340597    
   6.25075000000E+07; -0.924264     ; 0.0390222    
   6.25093750000E+07; -0.925111     ; 0.0440359    
   6.25112500000E+07; -0.921517     ; 0.0475826    
   6.25131250000E+07; -0.921971     ; 0.0519126    
   6.25150000000E+07; -0.918154     ; 0.0550344    
   6.25168750000E+07; -0.916492     ; 0.0619937    
   6.25187500000E+07; -0.916123     ; 0.0674817    
   6.25206250000E+07; -0.913578     ; 0.0704708    
   6.25225000000E+07; -0.913084     ; 0.0763282    
   6.25243750000E+07; -0.911637     ; 0.0840067    
   6.25262500000E+07; -0.907321     ; 0.0882464    
   6.25281250000E+07; -0.908702     ; 0.0935934    
   6.25300000000E+07; -0.904954     ; 0.098497     
   6.25318750000E+07; -0.902074     ; 0.104378     
   6.25337500000E+07; -0.901614     ; 0.110015     
   6.25356250000E+07; -0.897354     ; 0.116949     
   6.25375000000E+07; -0.894088     ; 0.122865     
   6.25393750000E+07; -0.891196     ; 0.127911     
   6.25412500000E+07; -0.889653     ; 0.133493     
   6.25431250000E+07; -0.88599      ; 0.140793     
   6.25450000000E+07; -0.882318     ; 0.146858     
   6.25468750000E+07; -0.877618     ; 0.153542     
   6.25487500000E+07; -0.874755     ; 0.160941     
   6.25506250000E+07; -0.870762     ; 0.168206     
   6.25525000000E+07; -0.865343     ; 0.17448      
   6.25543750000E+07; -0.862001     ; 0.182729     
   6.25562500000E+07; -0.856931     ; 0.190029     
   6.25581250000E+07; -0.851572     ; 0.19845      
   6.25600000000E+07; -0.847244     ; 0.205348     
   6.25618750000E+07; -0.840653     ; 0.214613     
   6.25637500000E+07; -0.832417     ; 0.221435     
   6.25656250000E+07; -0.827776     ; 0.230701     
   6.25675000000E+07; -0.81833      ; 0.236442     
   6.25693750000E+07; -0.810907     ; 0.24586      
   6.25712500000E+07; -0.806225     ; 0.253275     
   6.25731250000E+07; -0.794637     ; 0.264689     
   6.25750000000E+07; -0.786027     ; 0.271824     
   6.25768750000E+07; -0.774156     ; 0.28151      
   6.25787500000E+07; -0.765076     ; 0.288992     
   6.25806250000E+07; -0.753841     ; 0.298761     
   6.25825000000E+07; -0.739621     ; 0.307152     
   6.25843750000E+07; -0.728385     ; 0.316469     
   6.25862500000E+07; -0.715941     ; 0.327422     
   6.25881250000E+07; -0.700706     ; 0.334888     
   6.25900000000E+07; -0.683633     ; 0.343478     
   6.25918750000E+07; -0.668193     ; 0.350857     
   6.25937500000E+07; -0.650644     ; 0.358392     
   6.25956250000E+07; -0.630945     ; 0.366825     
   6.25975000000E+07; -0.611609     ; 0.373369     
   6.25993750000E+07; -0.589903     ; 0.380307     
   6.26012500000E+07; -0.565377     ; 0.386123     
   6.26031250000E+07; -0.542352     ; 0.390205     
   6.26050000000E+07; -0.515932     ; 0.393286     
   6.26068750000E+07; -0.49138      ; 0.395931     
   6.26087500000E+07; -0.462047     ; 0.39588      
   6.26106250000E+07; -0.430875     ; 0.395328     
   6.26125000000E+07; -0.400154     ; 0.393621     
   6.26143750000E+07; -0.368655     ; 0.385714     
   6.26162500000E+07; -0.334817     ; 0.378219     
   6.26181250000E+07; -0.302794     ; 0.366978     
   6.26200000000E+07; -0.267572     ; 0.352449     
   6.26218750000E+07; -0.234001     ; 0.33534      
   6.26237500000E+07; -0.201959     ; 0.313908     
   6.26256250000E+07; -0.168603     ; 0.289773     
   6.26275000000E+07; -0.136845     ; 0.261474     
   6.26293750000E+07; -0.107102     ; 0.229404     
   6.26312500000E+07; -0.0805314    ; 0.194243     
   6.26331250000E+07; -0.05687      ; 0.15576      
   6.26350000000E+07; -0.0362368    ; 0.114196     
   6.26368750000E+07; -0.0199822    ; 0.0711785    
   6.26387500000E+07; -0.00743518   ; 0.0261417    
   6.26406250000E+07; -2.41852E-05  ;-0.0202238    
   6.26425000000E+07;  0.00246664   ;-0.0658074    
   6.26443750000E+07;  0.00094606   ;-0.11288      
   6.26462500000E+07; -0.00530483   ;-0.157312     
   6.26481250000E+07; -0.0149497    ;-0.201668     
   6.26500000000E+07; -0.029589     ;-0.243062     
   6.26518750000E+07; -0.0476177    ;-0.282587     
   6.26537500000E+07; -0.0699065    ;-0.318133     
   6.26556250000E+07; -0.0891985    ;-0.352844     
   6.26575000000E+07; -0.115358     ;-0.383246     
   6.26593750000E+07; -0.140312     ;-0.411487     
   6.26612500000E+07; -0.167786     ;-0.434737     
   6.26631250000E+07; -0.194523     ;-0.454766     
   6.26650000000E+07; -0.223608     ;-0.472861     
   6.26668750000E+07; -0.251718     ;-0.489294     
   6.26687500000E+07; -0.278871     ;-0.501979     
   6.26706250000E+07; -0.304831     ;-0.512049     
   6.26725000000E+07; -0.333383     ;-0.521395     
   6.26743750000E+07; -0.359047     ;-0.528174     
   6.26762500000E+07; -0.383836     ;-0.533172     
   6.26781250000E+07; -0.407471     ;-0.536568     
   6.26800000000E+07; -0.428811     ;-0.539349     
   6.26818750000E+07; -0.451514     ;-0.5407       
   6.26837500000E+07; -0.473239     ;-0.540028     
   6.26856250000E+07; -0.492478     ;-0.540054     
   6.26875000000E+07; -0.514384     ;-0.538308     
   6.26893750000E+07; -0.531825     ;-0.535747     
   6.26912500000E+07; -0.54961      ;-0.532138     
   6.26931250000E+07; -0.564069     ;-0.530119     
   6.26950000000E+07; -0.581576     ;-0.525731     
   6.26968750000E+07; -0.593079     ;-0.522152     
   6.26987500000E+07; -0.609155     ;-0.520205     
   6.27006250000E+07; -0.622623     ;-0.515129     
   6.27025000000E+07; -0.635513     ;-0.507354     
   6.27043750000E+07; -0.646821     ;-0.505113     
   6.27062500000E+07; -0.659587     ;-0.498104     
   6.27081250000E+07; -0.670037     ;-0.493596     
   6.27100000000E+07; -0.68018      ;-0.488122     
   6.27118750000E+07; -0.688544     ;-0.482464     
   6.27137500000E+07; -0.699813     ;-0.477922     
   6.27156250000E+07; -0.710348     ;-0.473313     
   6.27175000000E+07; -0.717303     ;-0.466376     
   6.27193750000E+07; -0.726689     ;-0.461117     
   6.27212500000E+07; -0.733758     ;-0.456841     
   6.27231250000E+07; -0.741251     ;-0.450998     
   6.27250000000E+07; -0.74643      ;-0.446291     
   6.27268750000E+07; -0.756251     ;-0.443642     
   6.27287500000E+07; -0.76102      ;-0.436378     
   6.27306250000E+07; -0.769225     ;-0.430853     
   6.27325000000E+07; -0.774305     ;-0.425363     
   6.27343750000E+07; -0.779143     ;-0.421102     
   6.27362500000E+07; -0.784092     ;-0.415828     
   6.27381250000E+07; -0.790425     ;-0.412025     
   6.27400000000E+07; -0.796173     ;-0.405217     
   6.27418750000E+07; -0.798961     ;-0.402044     
   6.27437500000E+07; -0.804311     ;-0.396796     
   6.27456250000E+07; -0.80779      ;-0.394768     
   6.27475000000E+07; -0.814598     ;-0.386766     
   6.27493750000E+07; -0.816114     ;-0.383424     
   6.27512500000E+07; -0.819001     ;-0.378106     
   6.27531250000E+07; -0.822492     ;-0.372212     
   6.27550000000E+07; -0.828584     ;-0.369619     
   6.27568750000E+07; -0.833128     ;-0.366708     
   6.27587500000E+07; -0.835104     ;-0.361532     
   6.27606250000E+07; -0.839394     ;-0.359882     
   6.27625000000E+07; -0.84136      ;-0.353354     
   6.27643750000E+07; -0.845007     ;-0.349025     
   6.27662500000E+07; -0.847061     ;-0.346098     
   6.27681250000E+07; -0.848375     ;-0.341647     
   6.27700000000E+07; -0.854752     ;-0.338429     
   6.27718750000E+07; -0.857083     ;-0.335112     
   6.27737500000E+07; -0.858865     ;-0.330084     
   6.27756250000E+07; -0.86187      ;-0.327357     
   6.27775000000E+07; -0.864233     ;-0.32151      
   6.27793750000E+07; -0.866527     ;-0.318564     
   6.27812500000E+07; -0.866731     ;-0.316124     
   6.27831250000E+07; -0.870502     ;-0.311427     
   6.27850000000E+07; -0.872004     ;-0.307993     
   6.27868750000E+07; -0.87409      ;-0.306136     
   6.27887500000E+07; -0.876935     ;-0.302439     
   6.27906250000E+07; -0.878509     ;-0.29678      
   6.27925000000E+07; -0.879462     ;-0.297932     
   6.27943750000E+07; -0.883006     ;-0.291813     
   6.27962500000E+07; -0.881762     ;-0.288645     
   6.27981250000E+07; -0.886309     ;-0.28673      
   6.28000000000E+07; -0.886987     ;-0.283231     
   6.28018750000E+07; -0.889956     ;-0.281655     
   6.28037500000E+07; -0.890194     ;-0.276169     
   6.28056250000E+07; -0.88987      ;-0.274996     
   6.28075000000E+07; -0.88963      ;-0.27173      
   6.28093750000E+07; -0.894138     ;-0.272022     
   6.28112500000E+07; -0.894781     ;-0.266613     
   6.28131250000E+07; -0.894848     ;-0.262407     
   6.28150000000E+07; -0.8984       ;-0.259706     
   6.28168750000E+07; -0.899091     ;-0.257126     
   6.28187500000E+07; -0.900757     ;-0.256402     
   6.28206250000E+07; -0.901981     ;-0.250955     
   6.28225000000E+07; -0.902314     ;-0.24913      
   6.28243750000E+07; -0.90582      ;-0.248161     
   6.28262500000E+07; -0.905728     ;-0.243459     
   6.28281250000E+07; -0.907786     ;-0.23957      
   6.28300000000E+07; -0.905463     ;-0.236358     
   6.28318750000E+07; -0.90844      ;-0.236762     
   6.28337500000E+07; -0.910403     ;-0.233191     
   6.28356250000E+07; -0.911376     ;-0.228672     
   6.28375000000E+07; -0.912996     ;-0.227463     
   6.28393750000E+07; -0.912209     ;-0.226169     
   6.28412500000E+07; -0.913625     ;-0.224767     
   6.28431250000E+07; -0.913322     ;-0.220524     
   6.28450000000E+07; -0.917539     ;-0.219688     
   6.28468750000E+07; -0.917092     ;-0.217269     
   6.28487500000E+07; -0.91761      ;-0.212466     
   6.28506250000E+07; -0.916381     ;-0.211244     
   6.28525000000E+07; -0.91832      ;-0.20953      
   6.28543750000E+07; -0.91928      ;-0.208055     
   6.28562500000E+07; -0.920115     ;-0.204968     
   6.28581250000E+07; -0.921031     ;-0.201177     
   6.28600000000E+07; -0.923074     ;-0.200147     
   6.28618750000E+07; -0.920729     ;-0.197725     
   6.28637500000E+07; -0.923875     ;-0.194559     
   6.28656250000E+07; -0.92597      ;-0.196245     
   6.28675000000E+07; -0.925763     ;-0.189796     
   6.28693750000E+07; -0.925431     ;-0.189841     
   6.28712500000E+07; -0.925973     ;-0.186335     
   6.28731250000E+07; -0.926817     ;-0.182143     
   6.28750000000E+07; -0.923566     ;-0.18369      
   6.28768750000E+07; -0.927106     ;-0.180245     
   6.28787500000E+07; -0.929741     ;-0.177827     
   6.28806250000E+07; -0.929835     ;-0.176053     
   6.28825000000E+07; -0.927639     ;-0.173644     
   6.28843750000E+07; -0.931379     ;-0.174407     
   6.28862500000E+07; -0.931437     ;-0.167308     
   6.28881250000E+07; -0.930976     ;-0.167524     
   6.28900000000E+07; -0.93131      ;-0.165933     
   6.28918750000E+07; -0.932136     ;-0.165953     
   6.28937500000E+07; -0.935299     ;-0.16007      
   6.28956250000E+07; -0.931609     ;-0.160624     
   6.28975000000E+07; -0.934103     ;-0.156843     
   6.28993750000E+07; -0.936112     ;-0.156061     
   6.29012500000E+07; -0.934807     ;-0.154665     
   6.29031250000E+07; -0.933687     ;-0.151973     
   6.29050000000E+07; -0.93646      ;-0.152814     
   6.29068750000E+07; -0.937562     ;-0.149242     
   6.29087500000E+07; -0.937084     ;-0.145923     
   6.29106250000E+07; -0.935294     ;-0.142622     
   6.29125000000E+07; -0.939464     ;-0.142297     
   6.29143750000E+07; -0.937425     ;-0.14096      
   6.29162500000E+07; -0.937166     ;-0.137481     
   6.29181250000E+07; -0.938898     ;-0.137887     
   6.29200000000E+07; -0.938309     ;-0.134644     
   6.29218750000E+07; -0.939258     ;-0.134085     
   6.29237500000E+07; -0.939871     ;-0.132314     
   6.29256250000E+07; -0.939293     ;-0.129855     
   6.29275000000E+07; -0.943342     ;-0.130722     
   6.29293750000E+07; -0.940492     ;-0.124885     
   6.29312500000E+07; -0.94101      ;-0.124845     
   6.29331250000E+07; -0.938636     ;-0.12384      
   6.29350000000E+07; -0.944489     ;-0.12159      
   6.29368750000E+07; -0.943384     ;-0.118506     
   6.29387500000E+07; -0.941544     ;-0.11691      
   6.29406250000E+07; -0.943659     ;-0.116575     
   6.29425000000E+07; -0.943594     ;-0.114878     
   6.29443750000E+07; -0.943743     ;-0.113476     
   6.29462500000E+07; -0.944138     ;-0.110773     
   6.29481250000E+07; -0.944418     ;-0.108478     
   6.29500000000E+07; -0.944787     ;-0.107973     
   6.29518750000E+07; -0.946002     ;-0.106962     
   6.29537500000E+07; -0.945264     ;-0.104408     
   6.29556250000E+07; -0.945451     ;-0.103703     
   6.29575000000E+07; -0.942913     ;-0.102515     
   6.29593750000E+07; -0.945359     ;-0.0991008    
   6.29612500000E+07; -0.947086     ;-0.0977932    
   6.29631250000E+07; -0.946634     ;-0.0954949    
   6.29650000000E+07; -0.947631     ;-0.0950057    
   6.29668750000E+07; -0.946501     ;-0.0924672    
   6.29687500000E+07; -0.947507     ;-0.0902055    
   6.29706250000E+07; -0.947406     ;-0.0900275    
   6.29725000000E+07; -0.947327     ;-0.0865255    
   6.29743750000E+07; -0.947029     ;-0.0867872    
   6.29762500000E+07; -0.947062     ;-0.0842547    
   6.29781250000E+07; -0.946708     ;-0.0839734    
   6.29800000000E+07; -0.944878     ;-0.0810352    
   6.29818750000E+07; -0.947693     ;-0.0821221    
   6.29837500000E+07; -0.946864     ;-0.0782848    
   6.29856250000E+07; -0.949522     ;-0.0779599    
   6.29875000000E+07; -0.950483     ;-0.0728435    
   6.29893750000E+07; -0.948882     ;-0.0739677    
   6.29912500000E+07; -0.950106     ;-0.0710577    
   6.29931250000E+07; -0.948483     ;-0.0706112    
   6.29950000000E+07; -0.949556     ;-0.0689793    
   6.29968750000E+07; -0.94757      ;-0.0678443    
   6.29987500000E+07; -0.95129      ;-0.0665258    
   6.30006250000E+07; -0.953355     ;-0.064774     
   6.30025000000E+07; -0.952505     ;-0.0616922    
   6.30043750000E+07; -0.951063     ;-0.0598819    
   6.30062500000E+07; -0.948885     ;-0.060347     
   6.30081250000E+07; -0.95198      ;-0.0584118    
   6.30100000000E+07; -0.950616     ;-0.0550857    
   6.30118750000E+07; -0.949792     ;-0.0566116    
   6.30137500000E+07; -0.951706     ;-0.0536833    
   6.30156250000E+07; -0.951169     ;-0.0543134    
   6.30175000000E+07; -0.951533     ;-0.0520501    
   6.30193750000E+07; -0.949911     ;-0.0489892    
   6.30212500000E+07; -0.952909     ;-0.0487775    
   6.30231250000E+07; -0.95336      ;-0.0469245    
   6.30250000000E+07; -0.952048     ;-0.0454612    
   6.30268750000E+07; -0.950678     ;-0.044038     
   6.30287500000E+07; -0.952402     ;-0.0422257    
   6.30306250000E+07; -0.952101     ;-0.0406395    
   6.30325000000E+07; -0.953696     ;-0.0395316    
   6.30343750000E+07; -0.951119     ;-0.0378066    
   6.30362500000E+07; -0.95161      ;-0.0343771    
   6.30381250000E+07; -0.953076     ;-0.0339215    
   6.30400000000E+07; -0.951476     ;-0.0345663    
   6.30418750000E+07; -0.953642     ;-0.0327891    
   6.30437500000E+07; -0.952182     ;-0.0293655    
   6.30456250000E+07; -0.952972     ;-0.0289066    
   6.30475000000E+07; -0.95131      ;-0.0261889    
   6.30493750000E+07; -0.953979     ;-0.0248196    
   6.30512500000E+07; -0.954078     ;-0.0263426    
   6.30531250000E+07; -0.954408     ;-0.0255173    
   6.30550000000E+07; -0.951835     ;-0.0219214    
   6.30568750000E+07; -0.953294     ;-0.0202928    
   6.30587500000E+07; -0.952938     ;-0.0198561    
   6.30606250000E+07; -0.950573     ;-0.0175959    
   6.30625000000E+07; -0.954252     ;-0.0159777    
   6.30643750000E+07; -0.953754     ;-0.0150192    
   6.30662500000E+07; -0.954074     ;-0.0138302    
   6.30681250000E+07; -0.954871     ;-0.0131667    
   6.30700000000E+07; -0.954638     ;-0.0101715    
   6.30718750000E+07; -0.951918     ;-0.00889497   
   6.30737500000E+07; -0.955287     ;-0.00838489   
   6.30756250000E+07; -0.953672     ;-0.00614593   
   6.30775000000E+07; -0.955329     ;-0.00620802   
   6.30793750000E+07; -0.954361     ;-0.00475253   
   6.30812500000E+07; -0.953551     ;-0.00099968   
   6.30831250000E+07; -0.953518     ;-0.00112019   
   6.30850000000E+07; -0.954474     ;-0.00125489   
   6.30868750000E+07; -0.954865     ;-0.00220075   
   6.30887500000E+07; -0.953083     ; 0.00400597   
   6.30906250000E+07; -0.952791     ; 0.00416282   
   6.30925000000E+07; -0.954609     ; 0.00403987   
   6.30943750000E+07; -0.954313     ; 0.0083775    
   6.30962500000E+07; -0.951621     ; 0.00749262   
   6.30981250000E+07; -0.955442     ; 0.00840879   
   6.31000000000E+07; -0.954382     ; 0.00955844   
   6.31018750000E+07; -0.953479     ; 0.011764     
   6.31037500000E+07; -0.95403      ; 0.0143744    
   6.31056250000E+07; -0.955524     ; 0.0168081    
   6.31075000000E+07; -0.961125     ; 0.016451     
   6.31093750000E+07; -0.958271     ; 0.0162541    
   6.31112500000E+07; -0.957581     ; 0.0192263    
   6.31131250000E+07; -0.955327     ; 0.021352     
   6.31150000000E+07; -0.956777     ; 0.0212088    
   6.31168750000E+07; -0.956627     ; 0.0250799    
   6.31187500000E+07; -0.954445     ; 0.0215732    
   6.31206250000E+07; -0.954179     ; 0.0246441    
   6.31225000000E+07; -0.95726      ; 0.0253771    
   6.31243750000E+07; -0.956245     ; 0.0307313    
   6.31262500000E+07; -0.954872     ; 0.0293778    
   6.31281250000E+07; -0.956527     ; 0.0308787    
   6.31300000000E+07; -0.955326     ; 0.0322448    
   6.31318750000E+07; -0.95581      ; 0.0325247    
   6.31337500000E+07; -0.955348     ; 0.0340704    
   6.31356250000E+07; -0.956964     ; 0.0348964    
   6.31375000000E+07; -0.9554       ; 0.0386902    
   6.31393750000E+07; -0.95368      ; 0.0372538    
   6.31412500000E+07; -0.956548     ; 0.0401139    
   6.31431250000E+07; -0.953289     ; 0.0428117    
   6.31450000000E+07; -0.962        ; 0.0405554    
   6.31468750000E+07; -0.956472     ; 0.0452743    
   6.31487500000E+07; -0.95657      ; 0.0448383    
   6.31506250000E+07; -0.956629     ; 0.0457565    
   6.31525000000E+07; -0.955375     ; 0.0481258    
   6.31543750000E+07; -0.955902     ; 0.0482594    
   6.31562500000E+07; -0.953244     ; 0.0500639    
   6.31581250000E+07; -0.956525     ; 0.0512761    
   6.31600000000E+07; -0.954741     ; 0.0516254    
   6.31618750000E+07; -0.954975     ; 0.054328     
   6.31637500000E+07; -0.955054     ; 0.0528017    
   6.31656250000E+07; -0.955752     ; 0.0566992    
   6.31675000000E+07; -0.9534       ; 0.0575611    
   6.31693750000E+07; -0.954562     ; 0.05847      
   6.31712500000E+07; -0.955703     ; 0.0627139    
   6.31731250000E+07; -0.95109      ; 0.059635     
   6.31750000000E+07; -0.95462      ; 0.0620924    
   6.31768750000E+07; -0.954957     ; 0.0663805    
   6.31787500000E+07; -0.952934     ; 0.0646843    
   6.31806250000E+07; -0.951751     ; 0.0660326    
   6.31825000000E+07; -0.953716     ; 0.066917     
   6.31843750000E+07; -0.954061     ; 0.0679807    
   6.31862500000E+07; -0.955138     ; 0.0702048    
   6.31881250000E+07; -0.953324     ; 0.0710868    
   6.31900000000E+07; -0.954569     ; 0.0716688    
   6.31918750000E+07; -0.952766     ; 0.0738442    
   6.31937500000E+07; -0.953579     ; 0.0746503    
   6.31956250000E+07; -0.952491     ; 0.0761843    
   6.31975000000E+07; -0.952679     ; 0.0782919    
   6.31993750000E+07; -0.951309     ; 0.0783959    
   6.32012500000E+07; -0.9522       ; 0.0798022    
   6.32031250000E+07; -0.953131     ; 0.0807351    
   6.32050000000E+07; -0.952838     ; 0.0837577    
   6.32068750000E+07; -0.951699     ; 0.0828658    
   6.32087500000E+07; -0.952831     ; 0.0860183    
   6.32106250000E+07; -0.950076     ; 0.0861024    
   6.32125000000E+07; -0.951876     ; 0.0868467    
   6.32143750000E+07; -0.95112      ; 0.088746     
   6.32162500000E+07; -0.951977     ; 0.0884679    
   6.32181250000E+07; -0.950965     ; 0.0895701    
   6.32200000000E+07; -0.951533     ; 0.0912567    
   6.32218750000E+07; -0.951267     ; 0.0943451    
   6.32237500000E+07; -0.949854     ; 0.093433     
   6.32256250000E+07; -0.953031     ; 0.0941234    
   6.32275000000E+07; -0.951186     ; 0.0987544    
   6.32293750000E+07; -0.952993     ; 0.0991379    
   6.32312500000E+07; -0.949016     ; 0.10088      
   6.32331250000E+07; -0.952366     ; 0.0986759    
   6.32350000000E+07; -0.950899     ; 0.102427     
   6.32368750000E+07; -0.953416     ; 0.102601     
   6.32387500000E+07; -0.950966     ; 0.105456     
   6.32406250000E+07; -0.949057     ; 0.105017     
   6.32425000000E+07; -0.953012     ; 0.106295     
   6.32443750000E+07; -0.949837     ; 0.106142     
   6.32462500000E+07; -0.950165     ; 0.109033     
   6.32481250000E+07; -0.949438     ; 0.109965     
   6.32500000000E+07; -0.951156     ; 0.108844     
   6.32518750000E+07; -0.949641     ; 0.113406     
   6.32537500000E+07; -0.949655     ; 0.11205      
   6.32556250000E+07; -0.950981     ; 0.114331     
   6.32575000000E+07; -0.949702     ; 0.115977     
   6.32593750000E+07; -0.947949     ; 0.11662      
   6.32612500000E+07; -0.947586     ; 0.118168     
   6.32631250000E+07; -0.949078     ; 0.120333     
   6.32650000000E+07; -0.949173     ; 0.121296     
   6.32668750000E+07; -0.947405     ; 0.121405     
   6.32687500000E+07; -0.947758     ; 0.122513     
   6.32706250000E+07; -0.948256     ; 0.124898     
   6.32725000000E+07; -0.944165     ; 0.125835     
   6.32743750000E+07; -0.94711      ; 0.126649     
   6.32762500000E+07; -0.946752     ; 0.126872     
   6.32781250000E+07; -0.946282     ; 0.128752     
   6.32800000000E+07; -0.949373     ; 0.129158     
   6.32818750000E+07; -0.947403     ; 0.132287     
   6.32837500000E+07; -0.945247     ; 0.133496     
   6.32856250000E+07; -0.947927     ; 0.13346      
   6.32875000000E+07; -0.945998     ; 0.137558     
   6.32893750000E+07; -0.947846     ; 0.137871     
   6.32912500000E+07; -0.946675     ; 0.136353     
   6.32931250000E+07; -0.94632      ; 0.139452     
   6.32950000000E+07; -0.94481      ; 0.140127     
   6.32968750000E+07; -0.943879     ; 0.141631     
   6.32987500000E+07; -0.945864     ; 0.141797     
   6.33006250000E+07; -0.945986     ; 0.144816     
   6.33025000000E+07; -0.942878     ; 0.143182     
   6.33043750000E+07; -0.944013     ; 0.14563      
   6.33062500000E+07; -0.945117     ; 0.148126     
   6.33081250000E+07; -0.943421     ; 0.14753      
   6.33100000000E+07; -0.942416     ; 0.148904     
   6.33118750000E+07; -0.943278     ; 0.151811     
   6.33137500000E+07; -0.944604     ; 0.151554     
   6.33156250000E+07; -0.945003     ; 0.152152     
   6.33175000000E+07; -0.943417     ; 0.153541     
   6.33193750000E+07; -0.943508     ; 0.152525     
   6.33212500000E+07; -0.943606     ; 0.155927     
   6.33231250000E+07; -0.947995     ; 0.154412     
   6.33250000000E+07; -0.942726     ; 0.159966     
   6.33268750000E+07; -0.942129     ; 0.160428     
   6.33287500000E+07; -0.94227      ; 0.1601       
   6.33306250000E+07; -0.942431     ; 0.161924     
   6.33325000000E+07; -0.942347     ; 0.162139     
   6.33343750000E+07; -0.940794     ; 0.164183     
   6.33362500000E+07; -0.941261     ; 0.164372     
   6.33381250000E+07; -0.942136     ; 0.166537     
   6.33400000000E+07; -0.939034     ; 0.16742      
   6.33418750000E+07; -0.941796     ; 0.168219     
   6.33437500000E+07; -0.940098     ; 0.169123     
   6.33456250000E+07; -0.942199     ; 0.170282     
   6.33475000000E+07; -0.940518     ; 0.172637     
   6.33493750000E+07; -0.939613     ; 0.172659     
   6.33512500000E+07; -0.941476     ; 0.174544     
   6.33531250000E+07; -0.94063      ; 0.172875     
   6.33550000000E+07; -0.940155     ; 0.175125     
   6.33568750000E+07; -0.941574     ; 0.178337     
   6.33587500000E+07; -0.940057     ; 0.17863      
   6.33606250000E+07; -0.940419     ; 0.179374     
   6.33625000000E+07; -0.939033     ; 0.180162     
   6.33643750000E+07; -0.939288     ; 0.182185     
   6.33662500000E+07; -0.938476     ; 0.18143      
   6.33681250000E+07; -0.938536     ; 0.18343      
   6.33700000000E+07; -0.940609     ; 0.1883       
   6.33718750000E+07; -0.938825     ; 0.185978     
   6.33737500000E+07; -0.938278     ; 0.187945     
   6.33756250000E+07; -0.938238     ; 0.189852     
   6.33775000000E+07; -0.937233     ; 0.189758     
   6.33793750000E+07; -0.935798     ; 0.190737     
   6.33812500000E+07; -0.936574     ; 0.190631     
   6.33831250000E+07; -0.9364       ; 0.193637     
   6.33850000000E+07; -0.937298     ; 0.192599     
   6.33868750000E+07; -0.935238     ; 0.195926     
   6.33887500000E+07; -0.938143     ; 0.19702      
   6.33906250000E+07; -0.936004     ; 0.196559     
   6.33925000000E+07; -0.935483     ; 0.1969       
   6.33943750000E+07; -0.935484     ; 0.200068     
   6.33962500000E+07; -0.934371     ; 0.200759     
   6.33981250000E+07; -0.935813     ; 0.201624     
   6.34000000000E+07; -0.93367      ; 0.201609     
   6.34018750000E+07; -0.932392     ; 0.203992     
   6.34037500000E+07; -0.93527      ; 0.203946     
   6.34056250000E+07; -0.934403     ; 0.20873      
   6.34075000000E+07; -0.934747     ; 0.206649     
   6.34093750000E+07; -0.933074     ; 0.208525     
   6.34112500000E+07; -0.934089     ; 0.211336     
   6.34131250000E+07; -0.933059     ; 0.21173      
   6.34150000000E+07; -0.932396     ; 0.211143     
   6.34168750000E+07; -0.932984     ; 0.214122     
   6.34187500000E+07; -0.930449     ; 0.213454     
   6.34206250000E+07; -0.933358     ; 0.215655     
   6.34225000000E+07; -0.931717     ; 0.214888     
   6.34243750000E+07; -0.93081      ; 0.218324     
   6.34262500000E+07; -0.930399     ; 0.218828     
   6.34281250000E+07; -0.929761     ; 0.218637     
   6.34300000000E+07; -0.929629     ; 0.221927     
   6.34318750000E+07; -0.929395     ; 0.220263     
   6.34337500000E+07; -0.930758     ; 0.222802     
   6.34356250000E+07; -0.929924     ; 0.223106     
   6.34375000000E+07; -0.930194     ; 0.226627     
   6.34393750000E+07; -0.927899     ; 0.226372     
   6.34412500000E+07; -0.930271     ; 0.225535     
   6.34431250000E+07; -0.928809     ; 0.230086     
   6.34450000000E+07; -0.92804      ; 0.228413     
   6.34468750000E+07; -0.928701     ; 0.229337     
   6.34487500000E+07; -0.927111     ; 0.231204     
   6.34506250000E+07; -0.92775      ; 0.232419     
   6.34525000000E+07; -0.926319     ; 0.234449     
   6.34543750000E+07; -0.927251     ; 0.231809     
   6.34562500000E+07; -0.926892     ; 0.236294     
   6.34581250000E+07; -0.923577     ; 0.237296     
   6.34600000000E+07; -0.926073     ; 0.237822     
   6.34618750000E+07; -0.926681     ; 0.240165     
   6.34637500000E+07; -0.922463     ; 0.239443     
   6.34656250000E+07; -0.926914     ; 0.23971      
   6.34675000000E+07; -0.924738     ; 0.243086     
   6.34693750000E+07; -0.922684     ; 0.241747     
   6.34712500000E+07; -0.925472     ; 0.243747     
   6.34731250000E+07; -0.925276     ; 0.243146     
   6.34750000000E+07; -0.925384     ; 0.248307     
   6.34768750000E+07; -0.924703     ; 0.247944     
   6.34787500000E+07; -0.923543     ; 0.249704     
   6.34806250000E+07; -0.92432      ; 0.250448     
   6.34825000000E+07; -0.924121     ; 0.2509       
   6.34843750000E+07; -0.923002     ; 0.25233      
   6.34862500000E+07; -0.920992     ; 0.251334     
   6.34881250000E+07; -0.921056     ; 0.254192     
   6.34900000000E+07; -0.923304     ; 0.255076     
   6.34918750000E+07; -0.920192     ; 0.257269     
   6.34937500000E+07; -0.918727     ; 0.25655      
   6.34956250000E+07; -0.923139     ; 0.256263     
   6.34975000000E+07; -0.919487     ; 0.258863     
   6.34993750000E+07; -0.918986     ; 0.258678     
   6.35012500000E+07; -0.919759     ; 0.261307     
   6.35031250000E+07; -0.919778     ; 0.261672     
   6.35050000000E+07; -0.917757     ; 0.263276     
   6.35068750000E+07; -0.918848     ; 0.264607     
   6.35087500000E+07; -0.918163     ; 0.267205     
   6.35106250000E+07; -0.917379     ; 0.266039     
   6.35125000000E+07; -0.917137     ; 0.268816     
   6.35143750000E+07; -0.916806     ; 0.269492     
   6.35162500000E+07; -0.917165     ; 0.27077      
   6.35181250000E+07; -0.913621     ; 0.271553     
   6.35200000000E+07; -0.917571     ; 0.27132      
   6.35218750000E+07; -0.916107     ; 0.271831     
   6.35237500000E+07; -0.916976     ; 0.274842     
   6.35256250000E+07; -0.914919     ; 0.275721     
   6.35275000000E+07; -0.915415     ; 0.276527     
   6.35293750000E+07; -0.912229     ; 0.277092     
   6.35312500000E+07; -0.915215     ; 0.277534     
   6.35331250000E+07; -0.912647     ; 0.280183     
   6.35350000000E+07; -0.914673     ; 0.280164     
   6.35368750000E+07; -0.913171     ; 0.28126      
   6.35387500000E+07; -0.914189     ; 0.283785     
   6.35406250000E+07; -0.910777     ; 0.283438     
   6.35425000000E+07; -0.912947     ; 0.286387     
   6.35443750000E+07; -0.912411     ; 0.289246     
   6.35462500000E+07; -0.912008     ; 0.287899     
   6.35481250000E+07; -0.911152     ; 0.287787     
   6.35500000000E+07; -0.911388     ; 0.2913       
   6.35518750000E+07; -0.909766     ; 0.289273     
   6.35537500000E+07; -0.907886     ; 0.291802     
   6.35556250000E+07; -0.909555     ; 0.292496     
   6.35575000000E+07; -0.910748     ; 0.294864     
   6.35593750000E+07; -0.907755     ; 0.292757     
   6.35612500000E+07; -0.912175     ; 0.294066     
   6.35631250000E+07; -0.907666     ; 0.296845     
   6.35650000000E+07; -0.904936     ; 0.297321     
   6.35668750000E+07; -0.910321     ; 0.297584     
   6.35687500000E+07; -0.907324     ; 0.299627     
   6.35706250000E+07; -0.907552     ; 0.300286     
   6.35725000000E+07; -0.906995     ; 0.301146     
   6.35743750000E+07; -0.906446     ; 0.302169     
   6.35762500000E+07; -0.90385      ; 0.302648     
   6.35781250000E+07; -0.907738     ; 0.304805     
   6.35800000000E+07; -0.90472      ; 0.305908     
   6.35818750000E+07; -0.905294     ; 0.307452     
   6.35837500000E+07; -0.906826     ; 0.308125     
   6.35856250000E+07; -0.904414     ; 0.309797     
   6.35875000000E+07; -0.904981     ; 0.31146      
   6.35893750000E+07; -0.903603     ; 0.310431     
   6.35912500000E+07; -0.903744     ; 0.312047     
   6.35931250000E+07; -0.903987     ; 0.315334     
   6.35950000000E+07; -0.903902     ; 0.314583     
   6.35968750000E+07; -0.903121     ; 0.315389     
   6.35987500000E+07; -0.902743     ; 0.316879     
   6.36006250000E+07; -0.901123     ; 0.317855     
   6.36025000000E+07; -0.902424     ; 0.317649     
   6.36043750000E+07; -0.900311     ; 0.319191     
   6.36062500000E+07; -0.901405     ; 0.321185     
   6.36081250000E+07; -0.899475     ; 0.32271      
   6.36100000000E+07; -0.901366     ; 0.323604     
   6.36118750000E+07; -0.898241     ; 0.321641     
   6.36137500000E+07; -0.901022     ; 0.324692     
   6.36156250000E+07; -0.899314     ; 0.325206     
   6.36175000000E+07; -0.896668     ; 0.324381     
   6.36193750000E+07; -0.898358     ; 0.327866     
   6.36212500000E+07; -0.901212     ; 0.326055     
   6.36231250000E+07; -0.896519     ; 0.330318     
   6.36250000000E+07; -0.896022     ; 0.33063      
   6.36268750000E+07; -0.896043     ; 0.33094      
   6.36287500000E+07; -0.897345     ; 0.32974      
   6.36306250000E+07; -0.895637     ; 0.335711     
   6.36325000000E+07; -0.896426     ; 0.334056     
   6.36343750000E+07; -0.894448     ; 0.337041     
   6.36362500000E+07; -0.894694     ; 0.337782     
   6.36381250000E+07; -0.89266      ; 0.33877      
   6.36400000000E+07; -0.893631     ; 0.339581     
   6.36418750000E+07; -0.892776     ; 0.342253     
   6.36437500000E+07; -0.893607     ; 0.340847     
   6.36456250000E+07; -0.891503     ; 0.34346      
   6.36475000000E+07; -0.889807     ; 0.34207      
   6.36493750000E+07; -0.893243     ; 0.343329     
   6.36512500000E+07; -0.890796     ; 0.345495     
   6.36531250000E+07; -0.890839     ; 0.346306     
   6.36550000000E+07; -0.888901     ; 0.345966     
   6.36568750000E+07; -0.889814     ; 0.347575     
   6.36587500000E+07; -0.890499     ; 0.351455     
   6.36606250000E+07; -0.888754     ; 0.34991      
   6.36625000000E+07; -0.890006     ; 0.351513     
   6.36643750000E+07; -0.888099     ; 0.353296     
   6.36662500000E+07; -0.886816     ; 0.352165     
   6.36681250000E+07; -0.887226     ; 0.352861     
   6.36700000000E+07; -0.8882       ; 0.35672      
   6.36718750000E+07; -0.886974     ; 0.355198     
   6.36737500000E+07; -0.885729     ; 0.356227     
   6.36756250000E+07; -0.887154     ; 0.359143     
   6.36775000000E+07; -0.884523     ; 0.35854      
   6.36793750000E+07; -0.885488     ; 0.358765     
   6.36812500000E+07; -0.885366     ; 0.360728     
   6.36831250000E+07; -0.884557     ; 0.361354     
   6.36850000000E+07; -0.884407     ; 0.363663     
   6.36868750000E+07; -0.883319     ; 0.362212     
   6.36887500000E+07; -0.880842     ; 0.364555     
   6.36906250000E+07; -0.881657     ; 0.365977     
   6.36925000000E+07; -0.883332     ; 0.36629      
   6.36943750000E+07; -0.881223     ; 0.368505     
   6.36962500000E+07; -0.883223     ; 0.368715     
   6.36981250000E+07; -0.881361     ; 0.370568     
   6.37000000000E+07; -0.879177     ; 0.3706       
   6.37018750000E+07; -0.881135     ; 0.372193     
   6.37037500000E+07; -0.880007     ; 0.373826     
   6.37056250000E+07; -0.878853     ; 0.374773     
   6.37075000000E+07; -0.880783     ; 0.37455      
   6.37093750000E+07; -0.87806      ; 0.374403     
   6.37112500000E+07; -0.878218     ; 0.37841      
   6.37131250000E+07; -0.876447     ; 0.375865     
   6.37150000000E+07; -0.876618     ; 0.379585     
   6.37168750000E+07; -0.875334     ; 0.37931      
   6.37187500000E+07; -0.873923     ; 0.380705     
   6.37206250000E+07; -0.878435     ; 0.380119     
   6.37225000000E+07; -0.874628     ; 0.385661     
   6.37243750000E+07; -0.873077     ; 0.38321      
   6.37262500000E+07; -0.875204     ; 0.382999     
   6.37281250000E+07; -0.874011     ; 0.38667      
   6.37300000000E+07; -0.874693     ; 0.388443     
   6.37318750000E+07; -0.872033     ; 0.387884     
   6.37337500000E+07; -0.87345      ; 0.388861     
   6.37356250000E+07; -0.871847     ; 0.389855     
   6.37375000000E+07; -0.87314      ; 0.390877     
   6.37393750000E+07; -0.87257      ; 0.390608     
   6.37412500000E+07; -0.872237     ; 0.394201     
   6.37431250000E+07; -0.870392     ; 0.393686     
   6.37450000000E+07; -0.871604     ; 0.393608     
   6.37468750000E+07; -0.86971      ; 0.39574      
   6.37487500000E+07; -0.868162     ; 0.395565     
   6.37506250000E+07; -0.871045     ; 0.39637      
   6.37525000000E+07; -0.867394     ; 0.397664     
   6.37543750000E+07; -0.868462     ; 0.399175     
   6.37562500000E+07; -0.867569     ; 0.399541     
   6.37581250000E+07; -0.865339     ; 0.401596     
   6.37600000000E+07; -0.866608     ; 0.404037     
   6.37618750000E+07; -0.864815     ; 0.403835     
   6.37637500000E+07; -0.867094     ; 0.402812     
   6.37656250000E+07; -0.865897     ; 0.409336     
   6.37675000000E+07; -0.866678     ; 0.405677     
   6.37693750000E+07; -0.862386     ; 0.408165     
   6.37712500000E+07; -0.863654     ; 0.40963      
   6.37731250000E+07; -0.861596     ; 0.408551     
   6.37750000000E+07; -0.862532     ; 0.410668     
   6.37768750000E+07; -0.862794     ; 0.41153      
   6.37787500000E+07; -0.860722     ; 0.411491     
   6.37806250000E+07; -0.862849     ; 0.4129       
   6.37825000000E+07; -0.86099      ; 0.414805     
   6.37843750000E+07; -0.861402     ; 0.414058     
   6.37862500000E+07; -0.859817     ; 0.415697     
   6.37881250000E+07; -0.859971     ; 0.420185     
   6.37900000000E+07; -0.859326     ; 0.418046     
   6.37918750000E+07; -0.858562     ; 0.419106     
   6.37937500000E+07; -0.858759     ; 0.421021     
   6.37956250000E+07; -0.856437     ; 0.420018     
   6.37975000000E+07; -0.858462     ; 0.421966     
   6.37993750000E+07; -0.855704     ; 0.424306     
   6.38012500000E+07; -0.855558     ; 0.420729     
   6.38031250000E+07; -0.855284     ; 0.424185     
   6.38050000000E+07; -0.855631     ; 0.425861     
   6.38068750000E+07; -0.854412     ; 0.427102     
   6.38087500000E+07; -0.855392     ; 0.428694     
   6.38106250000E+07; -0.853942     ; 0.429037     
   6.38125000000E+07; -0.853246     ; 0.429573     
   6.38143750000E+07; -0.8526       ; 0.431208     
   6.38162500000E+07; -0.85557      ; 0.430031     
   6.38181250000E+07; -0.85247      ; 0.42942      
   6.38200000000E+07; -0.851948     ; 0.43535      
   6.38218750000E+07; -0.849414     ; 0.433489     
   6.38237500000E+07; -0.850994     ; 0.433885     
   6.38256250000E+07; -0.849821     ; 0.437526     
   6.38275000000E+07; -0.849346     ; 0.436201     
   6.38293750000E+07; -0.848876     ; 0.43819      
   6.38312500000E+07; -0.847692     ; 0.439222     
   6.38331250000E+07; -0.845619     ; 0.439977     
   6.38350000000E+07; -0.847203     ; 0.442169     
   6.38368750000E+07; -0.846319     ; 0.4436       
   6.38387500000E+07; -0.846272     ; 0.442415     
   6.38406250000E+07; -0.845947     ; 0.441812     
   6.38425000000E+07; -0.845323     ; 0.44674      
   6.38443750000E+07; -0.847027     ; 0.444568     
   6.38462500000E+07; -0.844728     ; 0.445628     
   6.38481250000E+07; -0.843945     ; 0.447228     
   6.38500000000E+07; -0.844316     ; 0.448135     
   6.38518750000E+07; -0.842596     ; 0.448644     
   6.38537500000E+07; -0.841859     ; 0.450983     
   6.38556250000E+07; -0.841715     ; 0.450714     
   6.38575000000E+07; -0.841274     ; 0.450684     
   6.38593750000E+07; -0.84143      ; 0.454019     
   6.38612500000E+07; -0.83754      ; 0.451991     
   6.38631250000E+07; -0.840891     ; 0.454392     
   6.38650000000E+07; -0.839606     ; 0.454346     
   6.38668750000E+07; -0.837192     ; 0.456317     
   6.38687500000E+07; -0.839186     ; 0.456427     
   6.38706250000E+07; -0.838114     ; 0.457808     
   6.38725000000E+07; -0.837118     ; 0.458275     
   6.38743750000E+07; -0.837416     ; 0.459724     
   6.38762500000E+07; -0.83593      ; 0.460001     
   6.38781250000E+07; -0.835203     ; 0.462191     
   6.38800000000E+07; -0.83688      ; 0.461713     
   6.38818750000E+07; -0.834292     ; 0.465628     
   6.38837500000E+07; -0.83425      ; 0.465698     
   6.38856250000E+07; -0.833032     ; 0.46474      
   6.38875000000E+07; -0.833707     ; 0.466774     
   6.38893750000E+07; -0.831777     ; 0.467382     
   6.38912500000E+07; -0.832345     ; 0.468828     
   6.38931250000E+07; -0.832188     ; 0.469258     
   6.38950000000E+07; -0.831805     ; 0.471389     
   6.38968750000E+07; -0.8281       ; 0.470206     
   6.38987500000E+07; -0.829387     ; 0.473365     
   6.39006250000E+07; -0.829499     ; 0.475138     
   6.39025000000E+07; -0.829374     ; 0.474034     
   6.39043750000E+07; -0.830095     ; 0.474333     
   6.39062500000E+07; -0.827904     ; 0.475905     
   6.39081250000E+07; -0.825995     ; 0.476746     
   6.39100000000E+07; -0.825467     ; 0.479071     
   6.39118750000E+07; -0.825235     ; 0.478487     
   6.39137500000E+07; -0.8253       ; 0.479419     
   6.39156250000E+07; -0.82671      ; 0.480144     
   6.39175000000E+07; -0.823819     ; 0.481964     
   6.39193750000E+07; -0.824224     ; 0.482485     
   6.39212500000E+07; -0.823719     ; 0.483735     
   6.39231250000E+07; -0.823283     ; 0.483884     
   6.39250000000E+07; -0.822461     ; 0.486482     
   6.39268750000E+07; -0.819802     ; 0.485105     
   6.39287500000E+07; -0.821933     ; 0.48707      
   6.39306250000E+07; -0.820043     ; 0.487932     
   6.39325000000E+07; -0.82125      ; 0.487571     
   6.39343750000E+07; -0.819057     ; 0.489753     
   6.39362500000E+07; -0.818475     ; 0.492089     
   6.39381250000E+07; -0.816176     ; 0.490768     
   6.39400000000E+07; -0.818596     ; 0.49211      
   6.39418750000E+07; -0.816804     ; 0.49466      
   6.39437500000E+07; -0.815341     ; 0.493172     
   6.39456250000E+07; -0.81621      ; 0.495658     
   6.39475000000E+07; -0.815301     ; 0.49561      
   6.39493750000E+07; -0.815464     ; 0.496195     
   6.39512500000E+07; -0.814766     ; 0.498726     
   6.39531250000E+07; -0.815598     ; 0.498302     
   6.39550000000E+07; -0.812702     ; 0.501188     
   6.39568750000E+07; -0.814642     ; 0.500933     
   6.39587500000E+07; -0.809555     ; 0.501931     
   6.39606250000E+07; -0.811428     ; 0.501504     
   6.39625000000E+07; -0.811069     ; 0.505674     
   6.39643750000E+07; -0.80723      ; 0.502207     
   6.39662500000E+07; -0.812077     ; 0.504819     
   6.39681250000E+07; -0.809403     ; 0.503322     
   6.39700000000E+07; -0.808211     ; 0.506953     
   6.39718750000E+07; -0.808934     ; 0.506728     
   6.39737500000E+07; -0.807979     ; 0.508816     
   6.39756250000E+07; -0.806679     ; 0.51042      
   6.39775000000E+07; -0.807495     ; 0.509208     
   6.39793750000E+07; -0.806241     ; 0.512913     
   6.39812500000E+07; -0.805234     ; 0.5109       
   6.39831250000E+07; -0.806595     ; 0.512345     
   6.39850000000E+07; -0.806038     ; 0.514129     
   6.39868750000E+07; -0.804075     ; 0.516303     
   6.39887500000E+07; -0.80332      ; 0.516009     
   6.39906250000E+07; -0.803368     ; 0.51551      
   6.39925000000E+07; -0.801976     ; 0.519133     
   6.39943750000E+07; -0.800159     ; 0.516894     
   6.39962500000E+07; -0.802775     ; 0.518695     
   6.39981250000E+07; -0.79827      ; 0.519825     
   6.40000000000E+07; -0.797723     ; 0.520518     
