
  ZVRE, 2.05

  stimulus-start        ; stimulus-stop       ; stimulus-unit       ; nof-points; parameter-type; impedance-ohm
  6.10000000000E+07     ; 6.40000000000E+07   ; Hz                  ; 1601      ; S11           ; 50        

  conversion            ; time-domain         ; data-format         ; param-unit; smoothing     ; trace-math
  S                     ; none                ; RI                  ; none      ; none          ; none

  sweep-mode-type       ; notlinear-meas-mode 
  FUNDAMENTAL           ; none                


  freq              ;  reS11        ; imS11         
   6.10000000000E+07; -0.47778      ;-0.847044     
   6.10018750000E+07; -0.479052     ;-0.841923     
   6.10037500000E+07; -0.480443     ;-0.842117     
   6.10056250000E+07; -0.483522     ;-0.841657     
   6.10075000000E+07; -0.482579     ;-0.838368     
   6.10093750000E+07; -0.485649     ;-0.839424     
   6.10112500000E+07; -0.482978     ;-0.839474     
   6.10131250000E+07; -0.4854       ;-0.837611     
   6.10150000000E+07; -0.487547     ;-0.83793      
   6.10168750000E+07; -0.487013     ;-0.837443     
   6.10187500000E+07; -0.485569     ;-0.835138     
   6.10206250000E+07; -0.487059     ;-0.834524     
   6.10225000000E+07; -0.488355     ;-0.833733     
   6.10243750000E+07; -0.488216     ;-0.83289      
   6.10262500000E+07; -0.491471     ;-0.835849     
   6.10281250000E+07; -0.489668     ;-0.836574     
   6.10300000000E+07; -0.493532     ;-0.83501      
   6.10318750000E+07; -0.494395     ;-0.832321     
   6.10337500000E+07; -0.494488     ;-0.833211     
   6.10356250000E+07; -0.495964     ;-0.831524     
   6.10375000000E+07; -0.495056     ;-0.833617     
   6.10393750000E+07; -0.496755     ;-0.831007     
   6.10412500000E+07; -0.497872     ;-0.828836     
   6.10431250000E+07; -0.500342     ;-0.828789     
   6.10450000000E+07; -0.500256     ;-0.828299     
   6.10468750000E+07; -0.501006     ;-0.828975     
   6.10487500000E+07; -0.503128     ;-0.828659     
   6.10506250000E+07; -0.501191     ;-0.825705     
   6.10525000000E+07; -0.504228     ;-0.82832      
   6.10543750000E+07; -0.503995     ;-0.825838     
   6.10562500000E+07; -0.503504     ;-0.826832     
   6.10581250000E+07; -0.50616      ;-0.823552     
   6.10600000000E+07; -0.505996     ;-0.825703     
   6.10618750000E+07; -0.509496     ;-0.820989     
   6.10637500000E+07; -0.509017     ;-0.824599     
   6.10656250000E+07; -0.51258      ;-0.821863     
   6.10675000000E+07; -0.51177      ;-0.821885     
   6.10693750000E+07; -0.509165     ;-0.821732     
   6.10712500000E+07; -0.510948     ;-0.819434     
   6.10731250000E+07; -0.512761     ;-0.821315     
   6.10750000000E+07; -0.513583     ;-0.819673     
   6.10768750000E+07; -0.514327     ;-0.820446     
   6.10787500000E+07; -0.515962     ;-0.817227     
   6.10806250000E+07; -0.514853     ;-0.81813      
   6.10825000000E+07; -0.516703     ;-0.817696     
   6.10843750000E+07; -0.518867     ;-0.816638     
   6.10862500000E+07; -0.517637     ;-0.81736      
   6.10881250000E+07; -0.519813     ;-0.818319     
   6.10900000000E+07; -0.520699     ;-0.817955     
   6.10918750000E+07; -0.521116     ;-0.816273     
   6.10937500000E+07; -0.524136     ;-0.813212     
   6.10956250000E+07; -0.522712     ;-0.814759     
   6.10975000000E+07; -0.526382     ;-0.814241     
   6.10993750000E+07; -0.521769     ;-0.813405     
   6.11012500000E+07; -0.522282     ;-0.80781      
   6.11031250000E+07; -0.524495     ;-0.813147     
   6.11050000000E+07; -0.525957     ;-0.811073     
   6.11068750000E+07; -0.528022     ;-0.8099       
   6.11087500000E+07; -0.529137     ;-0.810307     
   6.11106250000E+07; -0.530649     ;-0.808842     
   6.11125000000E+07; -0.529418     ;-0.80952      
   6.11143750000E+07; -0.531459     ;-0.807573     
   6.11162500000E+07; -0.534076     ;-0.807397     
   6.11181250000E+07; -0.531972     ;-0.806595     
   6.11200000000E+07; -0.533588     ;-0.808299     
   6.11218750000E+07; -0.53266      ;-0.804723     
   6.11237500000E+07; -0.535169     ;-0.808145     
   6.11256250000E+07; -0.536923     ;-0.804576     
   6.11275000000E+07; -0.537217     ;-0.803345     
   6.11293750000E+07; -0.537401     ;-0.804405     
   6.11312500000E+07; -0.540382     ;-0.802963     
   6.11331250000E+07; -0.537758     ;-0.801027     
   6.11350000000E+07; -0.541309     ;-0.800646     
   6.11368750000E+07; -0.541054     ;-0.803698     
   6.11387500000E+07; -0.541051     ;-0.800099     
   6.11406250000E+07; -0.543562     ;-0.801279     
   6.11425000000E+07; -0.543804     ;-0.799498     
   6.11443750000E+07; -0.546086     ;-0.799585     
   6.11462500000E+07; -0.547296     ;-0.797091     
   6.11481250000E+07; -0.545479     ;-0.798379     
   6.11500000000E+07; -0.545801     ;-0.793998     
   6.11518750000E+07; -0.548312     ;-0.798889     
   6.11537500000E+07; -0.548837     ;-0.797138     
   6.11556250000E+07; -0.552123     ;-0.793832     
   6.11575000000E+07; -0.549699     ;-0.795377     
   6.11593750000E+07; -0.551491     ;-0.793466     
   6.11612500000E+07; -0.551947     ;-0.793943     
   6.11631250000E+07; -0.555896     ;-0.792142     
   6.11650000000E+07; -0.551491     ;-0.790865     
   6.11668750000E+07; -0.55435      ;-0.793587     
   6.11687500000E+07; -0.556377     ;-0.790735     
   6.11706250000E+07; -0.5572       ;-0.790176     
   6.11725000000E+07; -0.556118     ;-0.787608     
   6.11743750000E+07; -0.555919     ;-0.789449     
   6.11762500000E+07; -0.559861     ;-0.790298     
   6.11781250000E+07; -0.559113     ;-0.789635     
   6.11800000000E+07; -0.561425     ;-0.78855      
   6.11818750000E+07; -0.56011      ;-0.788636     
   6.11837500000E+07; -0.56131      ;-0.786769     
   6.11856250000E+07; -0.563019     ;-0.786945     
   6.11875000000E+07; -0.56342      ;-0.788791     
   6.11893750000E+07; -0.567845     ;-0.784244     
   6.11912500000E+07; -0.566796     ;-0.783805     
   6.11931250000E+07; -0.565327     ;-0.783862     
   6.11950000000E+07; -0.568808     ;-0.781895     
   6.11968750000E+07; -0.567701     ;-0.782544     
   6.11987500000E+07; -0.569286     ;-0.780825     
   6.12006250000E+07; -0.570021     ;-0.782957     
   6.12025000000E+07; -0.569014     ;-0.783011     
   6.12043750000E+07; -0.574548     ;-0.777406     
   6.12062500000E+07; -0.572174     ;-0.780393     
   6.12081250000E+07; -0.572057     ;-0.780772     
   6.12100000000E+07; -0.575778     ;-0.776841     
   6.12118750000E+07; -0.576639     ;-0.777408     
   6.12137500000E+07; -0.574329     ;-0.777253     
   6.12156250000E+07; -0.574976     ;-0.775426     
   6.12175000000E+07; -0.576219     ;-0.776324     
   6.12193750000E+07; -0.576761     ;-0.77744      
   6.12212500000E+07; -0.580311     ;-0.774065     
   6.12231250000E+07; -0.579639     ;-0.774088     
   6.12250000000E+07; -0.580684     ;-0.77256      
   6.12268750000E+07; -0.582435     ;-0.771119     
   6.12287500000E+07; -0.581614     ;-0.770547     
   6.12306250000E+07; -0.583427     ;-0.773118     
   6.12325000000E+07; -0.582446     ;-0.772246     
   6.12343750000E+07; -0.585343     ;-0.768934     
   6.12362500000E+07; -0.584719     ;-0.769392     
   6.12381250000E+07; -0.589209     ;-0.768129     
   6.12400000000E+07; -0.587099     ;-0.768826     
   6.12418750000E+07; -0.58647      ;-0.765508     
   6.12437500000E+07; -0.58795      ;-0.768484     
   6.12456250000E+07; -0.59005      ;-0.765925     
   6.12475000000E+07; -0.591045     ;-0.765571     
   6.12493750000E+07; -0.59237      ;-0.763988     
   6.12512500000E+07; -0.590126     ;-0.762525     
   6.12531250000E+07; -0.592454     ;-0.765468     
   6.12550000000E+07; -0.593509     ;-0.765175     
   6.12568750000E+07; -0.594413     ;-0.76327      
   6.12587500000E+07; -0.594515     ;-0.763125     
   6.12606250000E+07; -0.596183     ;-0.760871     
   6.12625000000E+07; -0.595799     ;-0.760896     
   6.12643750000E+07; -0.596523     ;-0.761475     
   6.12662500000E+07; -0.5987       ;-0.758349     
   6.12681250000E+07; -0.599368     ;-0.757999     
   6.12700000000E+07; -0.602147     ;-0.756797     
   6.12718750000E+07; -0.600472     ;-0.756068     
   6.12737500000E+07; -0.6008       ;-0.758097     
   6.12756250000E+07; -0.601711     ;-0.755121     
   6.12775000000E+07; -0.602435     ;-0.755033     
   6.12793750000E+07; -0.60397      ;-0.755566     
   6.12812500000E+07; -0.605778     ;-0.752711     
   6.12831250000E+07; -0.6068       ;-0.752008     
   6.12850000000E+07; -0.608408     ;-0.750886     
   6.12868750000E+07; -0.605999     ;-0.751723     
   6.12887500000E+07; -0.607533     ;-0.752456     
   6.12906250000E+07; -0.608318     ;-0.749586     
   6.12925000000E+07; -0.607474     ;-0.749593     
   6.12943750000E+07; -0.613213     ;-0.751614     
   6.12962500000E+07; -0.611221     ;-0.748996     
   6.12981250000E+07; -0.611913     ;-0.75044      
   6.13000000000E+07; -0.61228      ;-0.749153     
   6.13018750000E+07; -0.615073     ;-0.746144     
   6.13037500000E+07; -0.613989     ;-0.745676     
   6.13056250000E+07; -0.614223     ;-0.747371     
   6.13075000000E+07; -0.613921     ;-0.744877     
   6.13093750000E+07; -0.617043     ;-0.743705     
   6.13112500000E+07; -0.618316     ;-0.743739     
   6.13131250000E+07; -0.619365     ;-0.742903     
   6.13150000000E+07; -0.617385     ;-0.742624     
   6.13168750000E+07; -0.617073     ;-0.739851     
   6.13187500000E+07; -0.619467     ;-0.740316     
   6.13206250000E+07; -0.62121      ;-0.741399     
   6.13225000000E+07; -0.622065     ;-0.741587     
   6.13243750000E+07; -0.622333     ;-0.73974      
   6.13262500000E+07; -0.622308     ;-0.737636     
   6.13281250000E+07; -0.623088     ;-0.736211     
   6.13300000000E+07; -0.624542     ;-0.737675     
   6.13318750000E+07; -0.625643     ;-0.737947     
   6.13337500000E+07; -0.62928      ;-0.734763     
   6.13356250000E+07; -0.629389     ;-0.733501     
   6.13375000000E+07; -0.626872     ;-0.733716     
   6.13393750000E+07; -0.629456     ;-0.734631     
   6.13412500000E+07; -0.629958     ;-0.732657     
   6.13431250000E+07; -0.633164     ;-0.732471     
   6.13450000000E+07; -0.628473     ;-0.730331     
   6.13468750000E+07; -0.630005     ;-0.729645     
   6.13487500000E+07; -0.633561     ;-0.730349     
   6.13506250000E+07; -0.633308     ;-0.729197     
   6.13525000000E+07; -0.633365     ;-0.725966     
   6.13543750000E+07; -0.634978     ;-0.727598     
   6.13562500000E+07; -0.635844     ;-0.730111     
   6.13581250000E+07; -0.636614     ;-0.729526     
   6.13600000000E+07; -0.637506     ;-0.727645     
   6.13618750000E+07; -0.641481     ;-0.724647     
   6.13637500000E+07; -0.641643     ;-0.722911     
   6.13656250000E+07; -0.639916     ;-0.724725     
   6.13675000000E+07; -0.641617     ;-0.723578     
   6.13693750000E+07; -0.640719     ;-0.722046     
   6.13712500000E+07; -0.641293     ;-0.720906     
   6.13731250000E+07; -0.643905     ;-0.721349     
   6.13750000000E+07; -0.641216     ;-0.719216     
   6.13768750000E+07; -0.64345      ;-0.719853     
   6.13787500000E+07; -0.645032     ;-0.721507     
   6.13806250000E+07; -0.646565     ;-0.720482     
   6.13825000000E+07; -0.64803      ;-0.71709      
   6.13843750000E+07; -0.649611     ;-0.715759     
   6.13862500000E+07; -0.65033      ;-0.714421     
   6.13881250000E+07; -0.649508     ;-0.715578     
   6.13900000000E+07; -0.650369     ;-0.713691     
   6.13918750000E+07; -0.652417     ;-0.713176     
   6.13937500000E+07; -0.649393     ;-0.713195     
   6.13956250000E+07; -0.651276     ;-0.712469     
   6.13975000000E+07; -0.652417     ;-0.710103     
   6.13993750000E+07; -0.650345     ;-0.708411     
   6.14012500000E+07; -0.654325     ;-0.709852     
   6.14031250000E+07; -0.656314     ;-0.712297     
   6.14050000000E+07; -0.65367      ;-0.707101     
   6.14068750000E+07; -0.655662     ;-0.708473     
   6.14087500000E+07; -0.657618     ;-0.707652     
   6.14106250000E+07; -0.659991     ;-0.709412     
   6.14125000000E+07; -0.659138     ;-0.70738      
   6.14143750000E+07; -0.658884     ;-0.705074     
   6.14162500000E+07; -0.660135     ;-0.70812      
   6.14181250000E+07; -0.663096     ;-0.703321     
   6.14200000000E+07; -0.663011     ;-0.703343     
   6.14218750000E+07; -0.665131     ;-0.701426     
   6.14237500000E+07; -0.66521      ;-0.701919     
   6.14256250000E+07; -0.66352      ;-0.701954     
   6.14275000000E+07; -0.666552     ;-0.698993     
   6.14293750000E+07; -0.665564     ;-0.698208     
   6.14312500000E+07; -0.667936     ;-0.700395     
   6.14331250000E+07; -0.667385     ;-0.698889     
   6.14350000000E+07; -0.666785     ;-0.695806     
   6.14368750000E+07; -0.668542     ;-0.696092     
   6.14387500000E+07; -0.670222     ;-0.697806     
   6.14406250000E+07; -0.669744     ;-0.693407     
   6.14425000000E+07; -0.672702     ;-0.695319     
   6.14443750000E+07; -0.67353      ;-0.693043     
   6.14462500000E+07; -0.674705     ;-0.692044     
   6.14481250000E+07; -0.674304     ;-0.691165     
   6.14500000000E+07; -0.675371     ;-0.69065      
   6.14518750000E+07; -0.67659      ;-0.691019     
   6.14537500000E+07; -0.679298     ;-0.688695     
   6.14556250000E+07; -0.675911     ;-0.690257     
   6.14575000000E+07; -0.675126     ;-0.689225     
   6.14593750000E+07; -0.676427     ;-0.688544     
   6.14612500000E+07; -0.676108     ;-0.68603      
   6.14631250000E+07; -0.678869     ;-0.686795     
   6.14650000000E+07; -0.679937     ;-0.687987     
   6.14668750000E+07; -0.681639     ;-0.685769     
   6.14687500000E+07; -0.68249      ;-0.685036     
   6.14706250000E+07; -0.684499     ;-0.683181     
   6.14725000000E+07; -0.684497     ;-0.681542     
   6.14743750000E+07; -0.683168     ;-0.683324     
   6.14762500000E+07; -0.683528     ;-0.681491     
   6.14781250000E+07; -0.686577     ;-0.679334     
   6.14800000000E+07; -0.685902     ;-0.67889      
   6.14818750000E+07; -0.685048     ;-0.677457     
   6.14837500000E+07; -0.688625     ;-0.677449     
   6.14856250000E+07; -0.687513     ;-0.678743     
   6.14875000000E+07; -0.690481     ;-0.675241     
   6.14893750000E+07; -0.690466     ;-0.677117     
   6.14912500000E+07; -0.693439     ;-0.675114     
   6.14931250000E+07; -0.695214     ;-0.673772     
   6.14950000000E+07; -0.691366     ;-0.673102     
   6.14968750000E+07; -0.69205      ;-0.672391     
   6.14987500000E+07; -0.693479     ;-0.6729       
   6.15006250000E+07; -0.69269      ;-0.671997     
   6.15025000000E+07; -0.693827     ;-0.669338     
   6.15043750000E+07; -0.695111     ;-0.67018      
   6.15062500000E+07; -0.697112     ;-0.668314     
   6.15081250000E+07; -0.69639      ;-0.666606     
   6.15100000000E+07; -0.698793     ;-0.668366     
   6.15118750000E+07; -0.700728     ;-0.667173     
   6.15137500000E+07; -0.700238     ;-0.667131     
   6.15156250000E+07; -0.702708     ;-0.664892     
   6.15175000000E+07; -0.699703     ;-0.664739     
   6.15193750000E+07; -0.701456     ;-0.663686     
   6.15212500000E+07; -0.701075     ;-0.662378     
   6.15231250000E+07; -0.700863     ;-0.660358     
   6.15250000000E+07; -0.703199     ;-0.660691     
   6.15268750000E+07; -0.704751     ;-0.663424     
   6.15287500000E+07; -0.707041     ;-0.65887      
   6.15306250000E+07; -0.705783     ;-0.658875     
   6.15325000000E+07; -0.707005     ;-0.657108     
   6.15343750000E+07; -0.709043     ;-0.65626      
   6.15362500000E+07; -0.706788     ;-0.657368     
   6.15381250000E+07; -0.707936     ;-0.655748     
   6.15400000000E+07; -0.710661     ;-0.653492     
   6.15418750000E+07; -0.708666     ;-0.654573     
   6.15437500000E+07; -0.709253     ;-0.652829     
   6.15456250000E+07; -0.712878     ;-0.656408     
   6.15475000000E+07; -0.712339     ;-0.652015     
   6.15493750000E+07; -0.712807     ;-0.650415     
   6.15512500000E+07; -0.71388      ;-0.65125      
   6.15531250000E+07; -0.716523     ;-0.648224     
   6.15550000000E+07; -0.715985     ;-0.648876     
   6.15568750000E+07; -0.717712     ;-0.646996     
   6.15587500000E+07; -0.714193     ;-0.647188     
   6.15606250000E+07; -0.716438     ;-0.646578     
   6.15625000000E+07; -0.716991     ;-0.644692     
   6.15643750000E+07; -0.718532     ;-0.645168     
   6.15662500000E+07; -0.719934     ;-0.645722     
   6.15681250000E+07; -0.720586     ;-0.644904     
   6.15700000000E+07; -0.720061     ;-0.641593     
   6.15718750000E+07; -0.721425     ;-0.643151     
   6.15737500000E+07; -0.721868     ;-0.641752     
   6.15756250000E+07; -0.721707     ;-0.639425     
   6.15775000000E+07; -0.724241     ;-0.639197     
   6.15793750000E+07; -0.72453      ;-0.639472     
   6.15812500000E+07; -0.723642     ;-0.63767      
   6.15831250000E+07; -0.725886     ;-0.636954     
   6.15850000000E+07; -0.726351     ;-0.635211     
   6.15868750000E+07; -0.725726     ;-0.635298     
   6.15887500000E+07; -0.728258     ;-0.636545     
   6.15906250000E+07; -0.728202     ;-0.63345      
   6.15925000000E+07; -0.728966     ;-0.633671     
   6.15943750000E+07; -0.728403     ;-0.63349      
   6.15962500000E+07; -0.73076      ;-0.630245     
   6.15981250000E+07; -0.731664     ;-0.631725     
   6.16000000000E+07; -0.733001     ;-0.632145     
   6.16018750000E+07; -0.732554     ;-0.62931      
   6.16037500000E+07; -0.733337     ;-0.62793      
   6.16056250000E+07; -0.73364      ;-0.628908     
   6.16075000000E+07; -0.734818     ;-0.627973     
   6.16093750000E+07; -0.735961     ;-0.624121     
   6.16112500000E+07; -0.737305     ;-0.625445     
   6.16131250000E+07; -0.736633     ;-0.624889     
   6.16150000000E+07; -0.737684     ;-0.621845     
   6.16168750000E+07; -0.737931     ;-0.621828     
   6.16187500000E+07; -0.73822      ;-0.62348      
   6.16206250000E+07; -0.741272     ;-0.618122     
   6.16225000000E+07; -0.740393     ;-0.620184     
   6.16243750000E+07; -0.738484     ;-0.617888     
   6.16262500000E+07; -0.740842     ;-0.618664     
   6.16281250000E+07; -0.742384     ;-0.619544     
   6.16300000000E+07; -0.743866     ;-0.617128     
   6.16318750000E+07; -0.746197     ;-0.614137     
   6.16337500000E+07; -0.744081     ;-0.615997     
   6.16356250000E+07; -0.745489     ;-0.613409     
   6.16375000000E+07; -0.743162     ;-0.612715     
   6.16393750000E+07; -0.746096     ;-0.612902     
   6.16412500000E+07; -0.746919     ;-0.613436     
   6.16431250000E+07; -0.74744      ;-0.612911     
   6.16450000000E+07; -0.746705     ;-0.611228     
   6.16468750000E+07; -0.749423     ;-0.608958     
   6.16487500000E+07; -0.748755     ;-0.608688     
   6.16506250000E+07; -0.74817      ;-0.606491     
   6.16525000000E+07; -0.750755     ;-0.604753     
   6.16543750000E+07; -0.752072     ;-0.604294     
   6.16562500000E+07; -0.751007     ;-0.605433     
   6.16581250000E+07; -0.753678     ;-0.606776     
   6.16600000000E+07; -0.752665     ;-0.603869     
   6.16618750000E+07; -0.755268     ;-0.601229     
   6.16637500000E+07; -0.753028     ;-0.602131     
   6.16656250000E+07; -0.756304     ;-0.60045      
   6.16675000000E+07; -0.756706     ;-0.597705     
   6.16693750000E+07; -0.758477     ;-0.600295     
   6.16712500000E+07; -0.753975     ;-0.597398     
   6.16731250000E+07; -0.758342     ;-0.59675      
   6.16750000000E+07; -0.760601     ;-0.596503     
   6.16768750000E+07; -0.760497     ;-0.594129     
   6.16787500000E+07; -0.761455     ;-0.594912     
   6.16806250000E+07; -0.759        ;-0.593073     
   6.16825000000E+07; -0.76124      ;-0.592779     
   6.16843750000E+07; -0.76109      ;-0.592638     
   6.16862500000E+07; -0.764104     ;-0.591976     
   6.16881250000E+07; -0.761737     ;-0.590844     
   6.16900000000E+07; -0.764431     ;-0.590108     
   6.16918750000E+07; -0.764296     ;-0.591489     
   6.16937500000E+07; -0.765239     ;-0.586194     
   6.16956250000E+07; -0.76653      ;-0.585613     
   6.16975000000E+07; -0.767776     ;-0.584682     
   6.16993750000E+07; -0.767697     ;-0.58408      
   6.17012500000E+07; -0.767197     ;-0.586218     
   6.17031250000E+07; -0.769334     ;-0.583755     
   6.17050000000E+07; -0.77184      ;-0.580881     
   6.17068750000E+07; -0.770006     ;-0.580083     
   6.17087500000E+07; -0.770167     ;-0.580613     
   6.17106250000E+07; -0.770006     ;-0.58113      
   6.17125000000E+07; -0.770999     ;-0.580576     
   6.17143750000E+07; -0.772356     ;-0.578202     
   6.17162500000E+07; -0.774467     ;-0.57665      
   6.17181250000E+07; -0.772922     ;-0.577583     
   6.17200000000E+07; -0.772237     ;-0.575304     
   6.17218750000E+07; -0.77433      ;-0.572921     
   6.17237500000E+07; -0.77591      ;-0.572358     
   6.17256250000E+07; -0.772274     ;-0.570929     
   6.17275000000E+07; -0.777667     ;-0.576201     
   6.17293750000E+07; -0.776907     ;-0.570546     
   6.17312500000E+07; -0.780625     ;-0.568231     
   6.17331250000E+07; -0.776963     ;-0.570053     
   6.17350000000E+07; -0.78105      ;-0.569041     
   6.17368750000E+07; -0.777838     ;-0.566747     
   6.17387500000E+07; -0.779253     ;-0.566527     
   6.17406250000E+07; -0.781048     ;-0.564257     
   6.17425000000E+07; -0.78344      ;-0.562702     
   6.17443750000E+07; -0.785834     ;-0.562613     
   6.17462500000E+07; -0.780414     ;-0.561842     
   6.17481250000E+07; -0.784725     ;-0.562046     
   6.17500000000E+07; -0.784515     ;-0.561762     
   6.17518750000E+07; -0.787278     ;-0.559715     
   6.17537500000E+07; -0.788203     ;-0.556788     
   6.17556250000E+07; -0.784817     ;-0.55905      
   6.17575000000E+07; -0.787139     ;-0.557647     
   6.17593750000E+07; -0.786923     ;-0.558461     
   6.17612500000E+07; -0.788165     ;-0.556433     
   6.17631250000E+07; -0.789481     ;-0.554826     
   6.17650000000E+07; -0.789529     ;-0.553659     
   6.17668750000E+07; -0.790963     ;-0.552037     
   6.17687500000E+07; -0.791365     ;-0.552019     
   6.17706250000E+07; -0.791183     ;-0.549964     
   6.17725000000E+07; -0.789616     ;-0.550174     
   6.17743750000E+07; -0.793076     ;-0.550986     
   6.17762500000E+07; -0.793183     ;-0.5513       
   6.17781250000E+07; -0.793209     ;-0.54936      
   6.17800000000E+07; -0.795537     ;-0.54711      
   6.17818750000E+07; -0.795967     ;-0.543949     
   6.17837500000E+07; -0.795155     ;-0.545806     
   6.17856250000E+07; -0.795136     ;-0.542358     
   6.17875000000E+07; -0.796537     ;-0.543707     
   6.17893750000E+07; -0.798458     ;-0.54583      
   6.17912500000E+07; -0.797591     ;-0.542421     
   6.17931250000E+07; -0.800479     ;-0.537739     
   6.17950000000E+07; -0.798149     ;-0.539905     
   6.17968750000E+07; -0.800878     ;-0.538448     
   6.17987500000E+07; -0.801808     ;-0.538281     
   6.18006250000E+07; -0.801401     ;-0.538376     
   6.18025000000E+07; -0.801269     ;-0.537753     
   6.18043750000E+07; -0.802433     ;-0.534624     
   6.18062500000E+07; -0.801047     ;-0.532914     
   6.18081250000E+07; -0.803564     ;-0.535851     
   6.18100000000E+07; -0.803342     ;-0.529815     
   6.18118750000E+07; -0.804333     ;-0.530236     
   6.18137500000E+07; -0.80483      ;-0.530259     
   6.18156250000E+07; -0.804613     ;-0.528957     
   6.18175000000E+07; -0.805904     ;-0.528455     
   6.18193750000E+07; -0.80719      ;-0.527763     
   6.18212500000E+07; -0.806327     ;-0.525423     
   6.18231250000E+07; -0.807555     ;-0.526078     
   6.18250000000E+07; -0.807672     ;-0.525346     
   6.18268750000E+07; -0.807997     ;-0.523475     
   6.18287500000E+07; -0.80979      ;-0.5209       
   6.18306250000E+07; -0.810659     ;-0.522053     
   6.18325000000E+07; -0.808099     ;-0.520238     
   6.18343750000E+07; -0.81275      ;-0.519903     
   6.18362500000E+07; -0.811835     ;-0.517953     
   6.18381250000E+07; -0.813576     ;-0.519815     
   6.18400000000E+07; -0.814071     ;-0.51437      
   6.18418750000E+07; -0.813001     ;-0.516488     
   6.18437500000E+07; -0.812781     ;-0.515527     
   6.18456250000E+07; -0.814371     ;-0.51358      
   6.18475000000E+07; -0.815099     ;-0.510828     
   6.18493750000E+07; -0.814855     ;-0.510278     
   6.18512500000E+07; -0.815037     ;-0.511175     
   6.18531250000E+07; -0.817139     ;-0.511805     
   6.18550000000E+07; -0.818916     ;-0.510448     
   6.18568750000E+07; -0.818436     ;-0.509189     
   6.18587500000E+07; -0.817987     ;-0.507101     
   6.18606250000E+07; -0.818664     ;-0.505535     
   6.18625000000E+07; -0.819779     ;-0.504062     
   6.18643750000E+07; -0.821285     ;-0.506106     
   6.18662500000E+07; -0.821753     ;-0.505265     
   6.18681250000E+07; -0.823661     ;-0.501588     
   6.18700000000E+07; -0.821837     ;-0.501925     
   6.18718750000E+07; -0.823429     ;-0.501707     
   6.18737500000E+07; -0.821623     ;-0.498812     
   6.18756250000E+07; -0.825164     ;-0.501711     
   6.18775000000E+07; -0.823551     ;-0.497785     
   6.18793750000E+07; -0.82728      ;-0.495193     
   6.18812500000E+07; -0.825433     ;-0.497495     
   6.18831250000E+07; -0.824515     ;-0.493862     
   6.18850000000E+07; -0.828878     ;-0.49493      
   6.18868750000E+07; -0.828086     ;-0.493905     
   6.18887500000E+07; -0.827469     ;-0.493156     
   6.18906250000E+07; -0.826756     ;-0.491329     
   6.18925000000E+07; -0.826441     ;-0.490067     
   6.18943750000E+07; -0.82919      ;-0.489474     
   6.18962500000E+07; -0.830101     ;-0.485903     
   6.18981250000E+07; -0.83113      ;-0.487118     
   6.19000000000E+07; -0.831477     ;-0.487971     
   6.19018750000E+07; -0.83544      ;-0.484508     
   6.19037500000E+07; -0.834939     ;-0.487447     
   6.19056250000E+07; -0.832962     ;-0.48334      
   6.19075000000E+07; -0.831704     ;-0.482833     
   6.19093750000E+07; -0.833962     ;-0.482181     
   6.19112500000E+07; -0.835775     ;-0.479011     
   6.19131250000E+07; -0.837175     ;-0.476394     
   6.19150000000E+07; -0.836479     ;-0.478673     
   6.19168750000E+07; -0.834593     ;-0.476865     
   6.19187500000E+07; -0.837812     ;-0.476894     
   6.19206250000E+07; -0.839612     ;-0.472119     
   6.19225000000E+07; -0.839375     ;-0.473587     
   6.19243750000E+07; -0.839105     ;-0.475802     
   6.19262500000E+07; -0.838618     ;-0.471709     
   6.19281250000E+07; -0.840474     ;-0.469833     
   6.19300000000E+07; -0.841754     ;-0.47111      
   6.19318750000E+07; -0.839247     ;-0.468766     
   6.19337500000E+07; -0.840394     ;-0.466383     
   6.19356250000E+07; -0.84227      ;-0.467214     
   6.19375000000E+07; -0.843434     ;-0.468098     
   6.19393750000E+07; -0.844222     ;-0.464854     
   6.19412500000E+07; -0.845319     ;-0.465669     
   6.19431250000E+07; -0.845376     ;-0.464604     
   6.19450000000E+07; -0.84533      ;-0.462891     
   6.19468750000E+07; -0.844528     ;-0.461031     
   6.19487500000E+07; -0.844768     ;-0.460729     
   6.19506250000E+07; -0.847547     ;-0.460778     
   6.19525000000E+07; -0.847714     ;-0.459685     
   6.19543750000E+07; -0.850039     ;-0.457064     
   6.19562500000E+07; -0.846323     ;-0.454759     
   6.19581250000E+07; -0.84914      ;-0.451661     
   6.19600000000E+07; -0.848822     ;-0.454548     
   6.19618750000E+07; -0.849456     ;-0.45324      
   6.19637500000E+07; -0.848093     ;-0.452158     
   6.19656250000E+07; -0.848597     ;-0.44886      
   6.19675000000E+07; -0.850915     ;-0.45142      
   6.19693750000E+07; -0.850832     ;-0.45244      
   6.19712500000E+07; -0.850816     ;-0.447051     
   6.19731250000E+07; -0.853038     ;-0.445599     
   6.19750000000E+07; -0.852524     ;-0.444717     
   6.19768750000E+07; -0.853499     ;-0.44552      
   6.19787500000E+07; -0.855639     ;-0.443634     
   6.19806250000E+07; -0.85247      ;-0.442765     
   6.19825000000E+07; -0.854862     ;-0.442313     
   6.19843750000E+07; -0.85585      ;-0.442561     
   6.19862500000E+07; -0.856319     ;-0.439246     
   6.19881250000E+07; -0.857459     ;-0.436318     
   6.19900000000E+07; -0.854672     ;-0.438045     
   6.19918750000E+07; -0.856955     ;-0.435892     
   6.19937500000E+07; -0.857798     ;-0.434098     
   6.19956250000E+07; -0.86024      ;-0.432086     
   6.19975000000E+07; -0.857246     ;-0.432651     
   6.19993750000E+07; -0.861046     ;-0.429319     
   6.20012500000E+07; -0.861317     ;-0.429717     
   6.20031250000E+07; -0.862035     ;-0.429208     
   6.20050000000E+07; -0.858411     ;-0.428849     
   6.20068750000E+07; -0.861447     ;-0.427294     
   6.20087500000E+07; -0.861243     ;-0.427638     
   6.20106250000E+07; -0.863244     ;-0.427173     
   6.20125000000E+07; -0.864483     ;-0.423273     
   6.20143750000E+07; -0.860297     ;-0.423162     
   6.20162500000E+07; -0.866039     ;-0.425094     
   6.20181250000E+07; -0.865204     ;-0.422661     
   6.20200000000E+07; -0.864583     ;-0.419458     
   6.20218750000E+07; -0.865605     ;-0.419341     
   6.20237500000E+07; -0.865905     ;-0.420201     
   6.20256250000E+07; -0.865304     ;-0.417354     
   6.20275000000E+07; -0.863537     ;-0.416837     
   6.20293750000E+07; -0.868125     ;-0.415477     
   6.20312500000E+07; -0.868959     ;-0.415628     
   6.20331250000E+07; -0.867398     ;-0.413108     
   6.20350000000E+07; -0.868166     ;-0.411515     
   6.20368750000E+07; -0.870153     ;-0.411421     
   6.20387500000E+07; -0.87113      ;-0.408723     
   6.20406250000E+07; -0.87024      ;-0.408217     
   6.20425000000E+07; -0.869615     ;-0.407205     
   6.20443750000E+07; -0.871726     ;-0.407212     
   6.20462500000E+07; -0.873733     ;-0.403014     
   6.20481250000E+07; -0.873035     ;-0.403146     
   6.20500000000E+07; -0.872168     ;-0.403132     
   6.20518750000E+07; -0.875188     ;-0.402211     
   6.20537500000E+07; -0.874726     ;-0.400274     
   6.20556250000E+07; -0.87313      ;-0.400742     
   6.20575000000E+07; -0.874162     ;-0.398625     
   6.20593750000E+07; -0.874924     ;-0.396942     
   6.20612500000E+07; -0.878385     ;-0.395727     
   6.20631250000E+07; -0.877347     ;-0.394272     
   6.20650000000E+07; -0.876367     ;-0.3941       
   6.20668750000E+07; -0.878372     ;-0.392064     
   6.20687500000E+07; -0.879554     ;-0.39228      
   6.20706250000E+07; -0.880016     ;-0.38973      
   6.20725000000E+07; -0.880649     ;-0.391773     
   6.20743750000E+07; -0.878894     ;-0.391559     
   6.20762500000E+07; -0.879798     ;-0.386868     
   6.20781250000E+07; -0.879795     ;-0.386266     
   6.20800000000E+07; -0.881383     ;-0.383217     
   6.20818750000E+07; -0.883823     ;-0.382925     
   6.20837500000E+07; -0.882127     ;-0.384143     
   6.20856250000E+07; -0.882444     ;-0.381509     
   6.20875000000E+07; -0.879474     ;-0.380725     
   6.20893750000E+07; -0.883138     ;-0.37997      
   6.20912500000E+07; -0.884285     ;-0.377078     
   6.20931250000E+07; -0.881803     ;-0.375053     
   6.20950000000E+07; -0.885096     ;-0.374096     
   6.20968750000E+07; -0.885017     ;-0.374606     
   6.20987500000E+07; -0.886022     ;-0.37521      
   6.21006250000E+07; -0.886722     ;-0.371873     
   6.21025000000E+07; -0.886599     ;-0.372139     
   6.21043750000E+07; -0.887571     ;-0.370866     
   6.21062500000E+07; -0.887977     ;-0.369298     
   6.21081250000E+07; -0.888848     ;-0.37033      
   6.21100000000E+07; -0.889992     ;-0.363382     
   6.21118750000E+07; -0.891093     ;-0.362416     
   6.21137500000E+07; -0.892379     ;-0.363031     
   6.21156250000E+07; -0.887276     ;-0.363508     
   6.21175000000E+07; -0.890247     ;-0.362046     
   6.21193750000E+07; -0.890926     ;-0.36177      
   6.21212500000E+07; -0.890699     ;-0.361613     
   6.21231250000E+07; -0.894524     ;-0.357072     
   6.21250000000E+07; -0.8944       ;-0.358869     
   6.21268750000E+07; -0.893052     ;-0.358821     
   6.21287500000E+07; -0.893209     ;-0.356171     
   6.21306250000E+07; -0.895001     ;-0.353579     
   6.21325000000E+07; -0.894017     ;-0.354144     
   6.21343750000E+07; -0.894477     ;-0.352051     
   6.21362500000E+07; -0.893816     ;-0.351192     
   6.21381250000E+07; -0.895203     ;-0.351256     
   6.21400000000E+07; -0.895539     ;-0.348979     
   6.21418750000E+07; -0.895556     ;-0.347382     
   6.21437500000E+07; -0.896987     ;-0.345803     
   6.21456250000E+07; -0.897578     ;-0.342814     
   6.21475000000E+07; -0.897339     ;-0.342898     
   6.21493750000E+07; -0.895749     ;-0.342901     
   6.21512500000E+07; -0.897475     ;-0.340424     
   6.21531250000E+07; -0.897884     ;-0.337758     
   6.21550000000E+07; -0.898759     ;-0.337715     
   6.21568750000E+07; -0.898835     ;-0.335979     
   6.21587500000E+07; -0.899731     ;-0.337018     
   6.21606250000E+07; -0.900598     ;-0.332746     
   6.21625000000E+07; -0.899258     ;-0.333966     
   6.21643750000E+07; -0.901655     ;-0.333525     
   6.21662500000E+07; -0.901369     ;-0.33306      
   6.21681250000E+07; -0.900631     ;-0.331215     
   6.21700000000E+07; -0.902203     ;-0.331351     
   6.21718750000E+07; -0.90444      ;-0.32802      
   6.21737500000E+07; -0.901205     ;-0.324808     
   6.21756250000E+07; -0.904408     ;-0.326876     
   6.21775000000E+07; -0.901151     ;-0.323615     
   6.21793750000E+07; -0.904172     ;-0.32215      
   6.21812500000E+07; -0.905        ;-0.320209     
   6.21831250000E+07; -0.905577     ;-0.320402     
   6.21850000000E+07; -0.907141     ;-0.315895     
   6.21868750000E+07; -0.905511     ;-0.315404     
   6.21887500000E+07; -0.906223     ;-0.315056     
   6.21906250000E+07; -0.909451     ;-0.312095     
   6.21925000000E+07; -0.905766     ;-0.312973     
   6.21943750000E+07; -0.90838      ;-0.312429     
   6.21962500000E+07; -0.909164     ;-0.30941      
   6.21981250000E+07; -0.909106     ;-0.310083     
   6.22000000000E+07; -0.908968     ;-0.307501     
   6.22018750000E+07; -0.908283     ;-0.305523     
   6.22037500000E+07; -0.909519     ;-0.305767     
   6.22056250000E+07; -0.912734     ;-0.301741     
   6.22075000000E+07; -0.909703     ;-0.301783     
   6.22093750000E+07; -0.912029     ;-0.303785     
   6.22112500000E+07; -0.912236     ;-0.300277     
   6.22131250000E+07; -0.912985     ;-0.300034     
   6.22150000000E+07; -0.913242     ;-0.297639     
   6.22168750000E+07; -0.913125     ;-0.296953     
   6.22187500000E+07; -0.91396      ;-0.295218     
   6.22206250000E+07; -0.912219     ;-0.2939       
   6.22225000000E+07; -0.911626     ;-0.290841     
   6.22243750000E+07; -0.912687     ;-0.28999      
   6.22262500000E+07; -0.915312     ;-0.290946     
   6.22281250000E+07; -0.91479      ;-0.28742      
   6.22300000000E+07; -0.915318     ;-0.288279     
   6.22318750000E+07; -0.917459     ;-0.285305     
   6.22337500000E+07; -0.91928      ;-0.285754     
   6.22356250000E+07; -0.916821     ;-0.279146     
   6.22375000000E+07; -0.916919     ;-0.280877     
   6.22393750000E+07; -0.917398     ;-0.280876     
   6.22412500000E+07; -0.919362     ;-0.279284     
   6.22431250000E+07; -0.918916     ;-0.274792     
   6.22450000000E+07; -0.917396     ;-0.276753     
   6.22468750000E+07; -0.916973     ;-0.274368     
   6.22487500000E+07; -0.918828     ;-0.272733     
   6.22506250000E+07; -0.921278     ;-0.272576     
   6.22525000000E+07; -0.919154     ;-0.269987     
   6.22543750000E+07; -0.920561     ;-0.269775     
   6.22562500000E+07; -0.920532     ;-0.267739     
   6.22581250000E+07; -0.923108     ;-0.264849     
   6.22600000000E+07; -0.921961     ;-0.264085     
   6.22618750000E+07; -0.924262     ;-0.261184     
   6.22637500000E+07; -0.921776     ;-0.262473     
   6.22656250000E+07; -0.922613     ;-0.26122      
   6.22675000000E+07; -0.922621     ;-0.260282     
   6.22693750000E+07; -0.922861     ;-0.256499     
   6.22712500000E+07; -0.92113      ;-0.254782     
   6.22731250000E+07; -0.922181     ;-0.252447     
   6.22750000000E+07; -0.924667     ;-0.25178      
   6.22768750000E+07; -0.923379     ;-0.253352     
   6.22787500000E+07; -0.923198     ;-0.249514     
   6.22806250000E+07; -0.92723      ;-0.249204     
   6.22825000000E+07; -0.925876     ;-0.244224     
   6.22843750000E+07; -0.926255     ;-0.244143     
   6.22862500000E+07; -0.924001     ;-0.24471      
   6.22881250000E+07; -0.92898      ;-0.243526     
   6.22900000000E+07; -0.928357     ;-0.239399     
   6.22918750000E+07; -0.928116     ;-0.23744      
   6.22937500000E+07; -0.927774     ;-0.237887     
   6.22956250000E+07; -0.927685     ;-0.236751     
   6.22975000000E+07; -0.927874     ;-0.233724     
   6.22993750000E+07; -0.928558     ;-0.232928     
   6.23012500000E+07; -0.924925     ;-0.230333     
   6.23031250000E+07; -0.929962     ;-0.229592     
   6.23050000000E+07; -0.930287     ;-0.22721      
   6.23068750000E+07; -0.929579     ;-0.226508     
   6.23087500000E+07; -0.930916     ;-0.222954     
   6.23106250000E+07; -0.930257     ;-0.223935     
   6.23125000000E+07; -0.930572     ;-0.222302     
   6.23143750000E+07; -0.930909     ;-0.220097     
   6.23162500000E+07; -0.933678     ;-0.219296     
   6.23181250000E+07; -0.930786     ;-0.217489     
   6.23200000000E+07; -0.933084     ;-0.214399     
   6.23218750000E+07; -0.933762     ;-0.213237     
   6.23237500000E+07; -0.933235     ;-0.210919     
   6.23256250000E+07; -0.931705     ;-0.210517     
   6.23275000000E+07; -0.934251     ;-0.208752     
   6.23293750000E+07; -0.933645     ;-0.207515     
   6.23312500000E+07; -0.934254     ;-0.205389     
   6.23331250000E+07; -0.934722     ;-0.201996     
   6.23350000000E+07; -0.935577     ;-0.202693     
   6.23368750000E+07; -0.934687     ;-0.19928      
   6.23387500000E+07; -0.934498     ;-0.198608     
   6.23406250000E+07; -0.935788     ;-0.194357     
   6.23425000000E+07; -0.934699     ;-0.194508     
   6.23443750000E+07; -0.935047     ;-0.192843     
   6.23462500000E+07; -0.936994     ;-0.188821     
   6.23481250000E+07; -0.934767     ;-0.19004      
   6.23500000000E+07; -0.935812     ;-0.189145     
   6.23518750000E+07; -0.935632     ;-0.18728      
   6.23537500000E+07; -0.937815     ;-0.184907     
   6.23556250000E+07; -0.935773     ;-0.183543     
   6.23575000000E+07; -0.933044     ;-0.179461     
   6.23593750000E+07; -0.937881     ;-0.180232     
   6.23612500000E+07; -0.935867     ;-0.178059     
   6.23631250000E+07; -0.938028     ;-0.175618     
   6.23650000000E+07; -0.939505     ;-0.17265      
   6.23668750000E+07; -0.937111     ;-0.170927     
   6.23687500000E+07; -0.938009     ;-0.16894      
   6.23706250000E+07; -0.938273     ;-0.167047     
   6.23725000000E+07; -0.939349     ;-0.16461      
   6.23743750000E+07; -0.940093     ;-0.163296     
   6.23762500000E+07; -0.940062     ;-0.161402     
   6.23781250000E+07; -0.941309     ;-0.160759     
   6.23800000000E+07; -0.939575     ;-0.157637     
   6.23818750000E+07; -0.939549     ;-0.155244     
   6.23837500000E+07; -0.941068     ;-0.152979     
   6.23856250000E+07; -0.939936     ;-0.151852     
   6.23875000000E+07; -0.942335     ;-0.149987     
   6.23893750000E+07; -0.94259      ;-0.147232     
   6.23912500000E+07; -0.940908     ;-0.146561     
   6.23931250000E+07; -0.941361     ;-0.142442     
   6.23950000000E+07; -0.944507     ;-0.142597     
   6.23968750000E+07; -0.942861     ;-0.138878     
   6.23987500000E+07; -0.940333     ;-0.138563     
   6.24006250000E+07; -0.942878     ;-0.135507     
   6.24025000000E+07; -0.940283     ;-0.132983     
   6.24043750000E+07; -0.943601     ;-0.131642     
   6.24062500000E+07; -0.942107     ;-0.127356     
   6.24081250000E+07; -0.942678     ;-0.126398     
   6.24100000000E+07; -0.941568     ;-0.124849     
   6.24118750000E+07; -0.941098     ;-0.121195     
   6.24137500000E+07; -0.941732     ;-0.119176     
   6.24156250000E+07; -0.942337     ;-0.118684     
   6.24175000000E+07; -0.942574     ;-0.115258     
   6.24193750000E+07; -0.942743     ;-0.113404     
   6.24212500000E+07; -0.942721     ;-0.109909     
   6.24231250000E+07; -0.944452     ;-0.105137     
   6.24250000000E+07; -0.943081     ;-0.104607     
   6.24268750000E+07; -0.944292     ;-0.103727     
   6.24287500000E+07; -0.944046     ;-0.0981645    
   6.24306250000E+07; -0.943573     ;-0.0976621    
   6.24325000000E+07; -0.943157     ;-0.0929397    
   6.24343750000E+07; -0.942377     ;-0.0926495    
   6.24362500000E+07; -0.942931     ;-0.0907839    
   6.24381250000E+07; -0.941506     ;-0.0900828    
   6.24400000000E+07; -0.941103     ;-0.0854098    
   6.24418750000E+07; -0.943937     ;-0.0820515    
   6.24437500000E+07; -0.942062     ;-0.0790908    
   6.24456250000E+07; -0.943422     ;-0.0765329    
   6.24475000000E+07; -0.941072     ;-0.0741373    
   6.24493750000E+07; -0.944451     ;-0.0716157    
   6.24512500000E+07; -0.942071     ;-0.068996     
   6.24531250000E+07; -0.942483     ;-0.0660911    
   6.24550000000E+07; -0.941004     ;-0.0622104    
   6.24568750000E+07; -0.942976     ;-0.0612345    
   6.24587500000E+07; -0.942513     ;-0.0575406    
   6.24606250000E+07; -0.939431     ;-0.0536444    
   6.24625000000E+07; -0.939158     ;-0.0501834    
   6.24643750000E+07; -0.940359     ;-0.0452954    
   6.24662500000E+07; -0.941147     ;-0.0431514    
   6.24681250000E+07; -0.938644     ;-0.0421372    
   6.24700000000E+07; -0.940631     ;-0.0404419    
   6.24718750000E+07; -0.939609     ;-0.0336354    
   6.24737500000E+07; -0.937852     ;-0.0315196    
   6.24756250000E+07; -0.939427     ;-0.0278415    
   6.24775000000E+07; -0.938259     ;-0.023694     
   6.24793750000E+07; -0.937523     ;-0.0227653    
   6.24812500000E+07; -0.938389     ;-0.0170939    
   6.24831250000E+07; -0.935362     ;-0.0144916    
   6.24850000000E+07; -0.936863     ;-0.0128396    
   6.24868750000E+07; -0.936916     ;-0.00687859   
   6.24887500000E+07; -0.935183     ;-0.00284207   
   6.24906250000E+07; -0.934597     ;-1.75047E-05  
   6.24925000000E+07; -0.932511     ; 0.00467078   
   6.24943750000E+07; -0.930091     ; 0.00666622   
   6.24962500000E+07; -0.932979     ; 0.0131561    
   6.24981250000E+07; -0.932099     ; 0.0157539    
   6.25000000000E+07; -0.927509     ; 0.019355     
   6.25018750000E+07; -0.930413     ; 0.0239991    
   6.25037500000E+07; -0.928229     ; 0.0279375    
   6.25056250000E+07; -0.928791     ; 0.0345554    
   6.25075000000E+07; -0.926924     ; 0.036302     
   6.25093750000E+07; -0.925371     ; 0.042606     
   6.25112500000E+07; -0.924649     ; 0.0456771    
   6.25131250000E+07; -0.922852     ; 0.0523447    
   6.25150000000E+07; -0.920132     ; 0.0541851    
   6.25168750000E+07; -0.919298     ; 0.0598453    
   6.25187500000E+07; -0.91888      ; 0.0648888    
   6.25206250000E+07; -0.915952     ; 0.0703755    
   6.25225000000E+07; -0.913486     ; 0.0756321    
   6.25243750000E+07; -0.913133     ; 0.0796646    
   6.25262500000E+07; -0.913003     ; 0.085211     
   6.25281250000E+07; -0.909215     ; 0.09151      
   6.25300000000E+07; -0.905178     ; 0.0969255    
   6.25318750000E+07; -0.904943     ; 0.102852     
   6.25337500000E+07; -0.901038     ; 0.107833     
   6.25356250000E+07; -0.898229     ; 0.113129     
   6.25375000000E+07; -0.896511     ; 0.120318     
   6.25393750000E+07; -0.893549     ; 0.126236     
   6.25412500000E+07; -0.888729     ; 0.131288     
   6.25431250000E+07; -0.888911     ; 0.138001     
   6.25450000000E+07; -0.884264     ; 0.143859     
   6.25468750000E+07; -0.87959      ; 0.150766     
   6.25487500000E+07; -0.879043     ; 0.157728     
   6.25506250000E+07; -0.873        ; 0.166476     
   6.25525000000E+07; -0.86896      ; 0.172764     
   6.25543750000E+07; -0.862978     ; 0.17948      
   6.25562500000E+07; -0.860286     ; 0.185979     
   6.25581250000E+07; -0.852225     ; 0.190581     
   6.25600000000E+07; -0.845351     ; 0.201634     
   6.25618750000E+07; -0.843032     ; 0.209491     
   6.25637500000E+07; -0.835474     ; 0.217803     
   6.25656250000E+07; -0.828379     ; 0.224214     
   6.25675000000E+07; -0.82321      ; 0.23386      
   6.25693750000E+07; -0.816934     ; 0.244153     
   6.25712500000E+07; -0.80718      ; 0.25153      
   6.25731250000E+07; -0.799092     ; 0.259086     
   6.25750000000E+07; -0.791224     ; 0.268112     
   6.25768750000E+07; -0.78201      ; 0.278624     
   6.25787500000E+07; -0.769175     ; 0.28547      
   6.25806250000E+07; -0.760991     ; 0.293259     
   6.25825000000E+07; -0.747729     ; 0.303393     
   6.25843750000E+07; -0.734358     ; 0.312263     
   6.25862500000E+07; -0.72283      ; 0.321481     
   6.25881250000E+07; -0.708277     ; 0.330681     
   6.25900000000E+07; -0.69222      ; 0.339293     
   6.25918750000E+07; -0.675515     ; 0.347034     
   6.25937500000E+07; -0.659735     ; 0.355013     
   6.25956250000E+07; -0.641303     ; 0.365162     
   6.25975000000E+07; -0.62158      ; 0.370619     
   6.25993750000E+07; -0.600316     ; 0.377271     
   6.26012500000E+07; -0.578974     ; 0.383427     
   6.26031250000E+07; -0.556478     ; 0.388748     
   6.26050000000E+07; -0.530918     ; 0.393385     
   6.26068750000E+07; -0.503985     ; 0.395046     
   6.26087500000E+07; -0.47608      ; 0.397819     
   6.26106250000E+07; -0.449548     ; 0.395248     
   6.26125000000E+07; -0.418284     ; 0.394956     
   6.26143750000E+07; -0.38618      ; 0.388871     
   6.26162500000E+07; -0.353818     ; 0.384992     
   6.26181250000E+07; -0.319697     ; 0.373503     
   6.26200000000E+07; -0.286942     ; 0.36078      
   6.26218750000E+07; -0.253541     ; 0.345304     
   6.26237500000E+07; -0.218889     ; 0.327382     
   6.26256250000E+07; -0.186579     ; 0.304534     
   6.26275000000E+07; -0.153857     ; 0.278461     
   6.26293750000E+07; -0.12444      ; 0.248586     
   6.26312500000E+07; -0.0945967    ; 0.215743     
   6.26331250000E+07; -0.0691429    ; 0.178412     
   6.26350000000E+07; -0.0466496    ; 0.138832     
   6.26368750000E+07; -0.0283586    ; 0.0967774    
   6.26387500000E+07; -0.0134266    ; 0.0533054    
   6.26406250000E+07; -0.00357626   ; 0.00706144   
   6.26425000000E+07;  0.0015781    ;-0.0389028    
   6.26443750000E+07;  0.00301528   ;-0.0848181    
   6.26462500000E+07; -0.000573676  ;-0.131289     
   6.26481250000E+07; -0.00771413   ;-0.175779     
   6.26500000000E+07; -0.020715     ;-0.218105     
   6.26518750000E+07; -0.0366242    ;-0.25882      
   6.26537500000E+07; -0.054803     ;-0.297619     
   6.26556250000E+07; -0.0748965    ;-0.33322      
   6.26575000000E+07; -0.0992497    ;-0.3659       
   6.26593750000E+07; -0.123981     ;-0.393203     
   6.26612500000E+07; -0.151391     ;-0.419494     
   6.26631250000E+07; -0.178254     ;-0.44184      
   6.26650000000E+07; -0.20696      ;-0.462012     
   6.26668750000E+07; -0.234259     ;-0.479492     
   6.26687500000E+07; -0.262684     ;-0.492776     
   6.26706250000E+07; -0.289745     ;-0.506779     
   6.26725000000E+07; -0.31626      ;-0.516929     
   6.26743750000E+07; -0.34096      ;-0.525843     
   6.26762500000E+07; -0.368211     ;-0.531859     
   6.26781250000E+07; -0.391347     ;-0.534317     
   6.26800000000E+07; -0.41573      ;-0.536492     
   6.26818750000E+07; -0.438213     ;-0.541213     
   6.26837500000E+07; -0.460288     ;-0.542904     
   6.26856250000E+07; -0.480452     ;-0.54031      
   6.26875000000E+07; -0.499599     ;-0.539743     
   6.26893750000E+07; -0.519576     ;-0.537488     
   6.26912500000E+07; -0.538273     ;-0.534544     
   6.26931250000E+07; -0.555755     ;-0.531553     
   6.26950000000E+07; -0.570569     ;-0.528876     
   6.26968750000E+07; -0.585161     ;-0.52523      
   6.26987500000E+07; -0.601237     ;-0.523853     
   6.27006250000E+07; -0.613628     ;-0.517552     
   6.27025000000E+07; -0.627482     ;-0.51291      
   6.27043750000E+07; -0.640492     ;-0.506479     
   6.27062500000E+07; -0.651424     ;-0.503384     
   6.27081250000E+07; -0.662838     ;-0.496859     
   6.27100000000E+07; -0.676413     ;-0.491616     
   6.27118750000E+07; -0.683711     ;-0.48777      
   6.27137500000E+07; -0.692766     ;-0.479726     
   6.27156250000E+07; -0.703568     ;-0.474781     
   6.27175000000E+07; -0.713468     ;-0.47173      
   6.27193750000E+07; -0.720454     ;-0.464628     
   6.27212500000E+07; -0.72937      ;-0.460964     
   6.27231250000E+07; -0.736737     ;-0.454472     
   6.27250000000E+07; -0.742474     ;-0.448443     
   6.27268750000E+07; -0.751956     ;-0.446081     
   6.27287500000E+07; -0.757617     ;-0.440585     
   6.27306250000E+07; -0.763096     ;-0.435207     
   6.27325000000E+07; -0.767468     ;-0.429716     
   6.27343750000E+07; -0.776501     ;-0.422998     
   6.27362500000E+07; -0.78051      ;-0.41959      
   6.27381250000E+07; -0.786145     ;-0.41455      
   6.27400000000E+07; -0.790493     ;-0.411529     
   6.27418750000E+07; -0.796753     ;-0.402555     
   6.27437500000E+07; -0.801136     ;-0.400496     
   6.27456250000E+07; -0.806007     ;-0.396981     
   6.27475000000E+07; -0.809757     ;-0.39047      
   6.27493750000E+07; -0.813586     ;-0.38558      
   6.27512500000E+07; -0.820008     ;-0.384342     
   6.27531250000E+07; -0.822663     ;-0.375054     
   6.27550000000E+07; -0.825936     ;-0.372595     
   6.27568750000E+07; -0.830535     ;-0.370428     
   6.27587500000E+07; -0.833914     ;-0.362792     
   6.27606250000E+07; -0.835684     ;-0.361554     
   6.27625000000E+07; -0.836519     ;-0.357354     
   6.27643750000E+07; -0.843276     ;-0.352557     
   6.27662500000E+07; -0.846338     ;-0.348843     
   6.27681250000E+07; -0.84923      ;-0.34433      
   6.27700000000E+07; -0.85282      ;-0.341447     
   6.27718750000E+07; -0.853378     ;-0.336067     
   6.27737500000E+07; -0.856502     ;-0.333328     
   6.27756250000E+07; -0.861817     ;-0.328391     
   6.27775000000E+07; -0.862451     ;-0.327211     
   6.27793750000E+07; -0.865269     ;-0.321755     
   6.27812500000E+07; -0.864288     ;-0.318252     
   6.27831250000E+07; -0.870507     ;-0.317558     
   6.27850000000E+07; -0.871318     ;-0.311148     
   6.27868750000E+07; -0.874614     ;-0.307801     
   6.27887500000E+07; -0.875533     ;-0.304717     
   6.27906250000E+07; -0.876052     ;-0.301677     
   6.27925000000E+07; -0.879841     ;-0.299011     
   6.27943750000E+07; -0.881862     ;-0.293016     
   6.27962500000E+07; -0.881535     ;-0.290883     
   6.27981250000E+07; -0.881786     ;-0.289296     
   6.28000000000E+07; -0.886228     ;-0.285729     
   6.28018750000E+07; -0.888257     ;-0.281589     
   6.28037500000E+07; -0.888341     ;-0.280037     
   6.28056250000E+07; -0.891288     ;-0.277658     
   6.28075000000E+07; -0.892977     ;-0.273062     
   6.28093750000E+07; -0.895692     ;-0.272095     
   6.28112500000E+07; -0.897308     ;-0.266125     
   6.28131250000E+07; -0.895459     ;-0.265126     
   6.28150000000E+07; -0.898249     ;-0.263168     
   6.28168750000E+07; -0.898431     ;-0.260451     
   6.28187500000E+07; -0.901227     ;-0.256948     
   6.28206250000E+07; -0.901528     ;-0.252141     
   6.28225000000E+07; -0.900614     ;-0.25109      
   6.28243750000E+07; -0.903694     ;-0.249019     
   6.28262500000E+07; -0.904326     ;-0.247124     
   6.28281250000E+07; -0.904345     ;-0.242197     
   6.28300000000E+07; -0.909096     ;-0.239293     
   6.28318750000E+07; -0.90566      ;-0.238531     
   6.28337500000E+07; -0.910026     ;-0.23485      
   6.28356250000E+07; -0.910431     ;-0.228512     
   6.28375000000E+07; -0.911968     ;-0.230112     
   6.28393750000E+07; -0.911505     ;-0.228155     
   6.28412500000E+07; -0.913361     ;-0.224549     
   6.28431250000E+07; -0.914637     ;-0.224304     
   6.28450000000E+07; -0.91605      ;-0.217822     
   6.28468750000E+07; -0.914614     ;-0.21671      
   6.28487500000E+07; -0.919825     ;-0.21618      
   6.28506250000E+07; -0.916714     ;-0.210746     
   6.28525000000E+07; -0.917278     ;-0.210727     
   6.28543750000E+07; -0.920653     ;-0.209034     
   6.28562500000E+07; -0.922175     ;-0.206534     
   6.28581250000E+07; -0.922756     ;-0.205758     
   6.28600000000E+07; -0.922157     ;-0.200828     
   6.28618750000E+07; -0.920153     ;-0.199075     
   6.28637500000E+07; -0.925123     ;-0.197167     
   6.28656250000E+07; -0.925499     ;-0.197031     
   6.28675000000E+07; -0.92476      ;-0.191773     
   6.28693750000E+07; -0.922802     ;-0.190861     
   6.28712500000E+07; -0.923757     ;-0.187221     
   6.28731250000E+07; -0.926159     ;-0.187597     
   6.28750000000E+07; -0.926632     ;-0.183856     
   6.28768750000E+07; -0.925628     ;-0.181978     
   6.28787500000E+07; -0.925507     ;-0.17912      
   6.28806250000E+07; -0.929404     ;-0.178096     
   6.28825000000E+07; -0.929791     ;-0.175106     
   6.28843750000E+07; -0.931769     ;-0.174168     
   6.28862500000E+07; -0.930608     ;-0.171257     
   6.28881250000E+07; -0.930617     ;-0.168438     
   6.28900000000E+07; -0.929365     ;-0.168013     
   6.28918750000E+07; -0.933299     ;-0.166278     
   6.28937500000E+07; -0.932466     ;-0.161565     
   6.28956250000E+07; -0.934642     ;-0.161169     
   6.28975000000E+07; -0.931941     ;-0.159882     
   6.28993750000E+07; -0.934746     ;-0.157871     
   6.29012500000E+07; -0.935252     ;-0.156104     
   6.29031250000E+07; -0.934291     ;-0.153704     
   6.29050000000E+07; -0.937303     ;-0.153215     
   6.29068750000E+07; -0.935481     ;-0.147383     
   6.29087500000E+07; -0.936251     ;-0.148123     
   6.29106250000E+07; -0.938471     ;-0.146066     
   6.29125000000E+07; -0.938245     ;-0.142232     
   6.29143750000E+07; -0.938601     ;-0.142402     
   6.29162500000E+07; -0.938446     ;-0.140592     
   6.29181250000E+07; -0.939943     ;-0.136902     
   6.29200000000E+07; -0.939056     ;-0.136754     
   6.29218750000E+07; -0.940818     ;-0.137742     
   6.29237500000E+07; -0.940641     ;-0.133017     
   6.29256250000E+07; -0.939005     ;-0.132298     
   6.29275000000E+07; -0.940274     ;-0.130277     
   6.29293750000E+07; -0.940503     ;-0.127256     
   6.29312500000E+07; -0.941406     ;-0.124035     
   6.29331250000E+07; -0.939628     ;-0.125662     
   6.29350000000E+07; -0.942945     ;-0.124092     
   6.29368750000E+07; -0.941306     ;-0.121089     
   6.29387500000E+07; -0.944423     ;-0.116177     
   6.29406250000E+07; -0.940838     ;-0.116943     
   6.29425000000E+07; -0.944765     ;-0.117081     
   6.29443750000E+07; -0.944484     ;-0.112111     
   6.29462500000E+07; -0.944322     ;-0.110915     
   6.29481250000E+07; -0.944181     ;-0.110009     
   6.29500000000E+07; -0.945192     ;-0.10906      
   6.29518750000E+07; -0.945189     ;-0.104269     
   6.29537500000E+07; -0.944459     ;-0.104672     
   6.29556250000E+07; -0.944961     ;-0.103505     
   6.29575000000E+07; -0.946821     ;-0.100579     
   6.29593750000E+07; -0.944406     ;-0.0999141    
   6.29612500000E+07; -0.94744      ;-0.097491     
   6.29631250000E+07; -0.946232     ;-0.0960906    
   6.29650000000E+07; -0.943036     ;-0.0958637    
   6.29668750000E+07; -0.945779     ;-0.0927102    
   6.29687500000E+07; -0.946452     ;-0.0919637    
   6.29706250000E+07; -0.946771     ;-0.0901377    
   6.29725000000E+07; -0.94603      ;-0.0898779    
   6.29743750000E+07; -0.947294     ;-0.0873071    
   6.29762500000E+07; -0.947769     ;-0.0875568    
   6.29781250000E+07; -0.948283     ;-0.0850517    
   6.29800000000E+07; -0.94682      ;-0.0827456    
   6.29818750000E+07; -0.946349     ;-0.0805245    
   6.29837500000E+07; -0.949675     ;-0.0766774    
   6.29856250000E+07; -0.949918     ;-0.076396     
   6.29875000000E+07; -0.950707     ;-0.0765303    
   6.29893750000E+07; -0.949852     ;-0.0751929    
   6.29912500000E+07; -0.949307     ;-0.0723861    
   6.29931250000E+07; -0.947879     ;-0.0718061    
   6.29950000000E+07; -0.949606     ;-0.0696665    
   6.29968750000E+07; -0.949137     ;-0.069375     
   6.29987500000E+07; -0.947773     ;-0.0670591    
   6.30006250000E+07; -0.954662     ;-0.0630799    
   6.30025000000E+07; -0.953897     ;-0.0634192    
   6.30043750000E+07; -0.949236     ;-0.063167     
   6.30062500000E+07; -0.951978     ;-0.062722     
   6.30081250000E+07; -0.95191      ;-0.0594994    
   6.30100000000E+07; -0.950628     ;-0.0578823    
   6.30118750000E+07; -0.950155     ;-0.0558788    
   6.30137500000E+07; -0.951009     ;-0.0542536    
   6.30156250000E+07; -0.952443     ;-0.0532797    
   6.30175000000E+07; -0.952586     ;-0.0523399    
   6.30193750000E+07; -0.952027     ;-0.0500706    
   6.30212500000E+07; -0.952848     ;-0.0479527    
   6.30231250000E+07; -0.951845     ;-0.04717      
   6.30250000000E+07; -0.952294     ;-0.047956     
   6.30268750000E+07; -0.952687     ;-0.0431275    
   6.30287500000E+07; -0.953508     ;-0.0426599    
   6.30306250000E+07; -0.951525     ;-0.0413104    
   6.30325000000E+07; -0.953551     ;-0.038866     
   6.30343750000E+07; -0.952724     ;-0.0380896    
   6.30362500000E+07; -0.952818     ;-0.0369221    
   6.30381250000E+07; -0.954261     ;-0.0363776    
   6.30400000000E+07; -0.952287     ;-0.0346291    
   6.30418750000E+07; -0.955429     ;-0.0341258    
   6.30437500000E+07; -0.954564     ;-0.030163     
   6.30456250000E+07; -0.953572     ;-0.0288531    
   6.30475000000E+07; -0.950168     ;-0.0284572    
   6.30493750000E+07; -0.953077     ;-0.0275841    
   6.30512500000E+07; -0.953336     ;-0.0253499    
   6.30531250000E+07; -0.95418      ;-0.0249019    
   6.30550000000E+07; -0.954023     ;-0.0244837    
   6.30568750000E+07; -0.952786     ;-0.020158     
   6.30587500000E+07; -0.952435     ;-0.0198748    
   6.30606250000E+07; -0.954325     ;-0.0172349    
   6.30625000000E+07; -0.954219     ;-0.0177817    
   6.30643750000E+07; -0.952677     ;-0.0162978    
   6.30662500000E+07; -0.953901     ;-0.0150661    
   6.30681250000E+07; -0.954627     ;-0.0123719    
   6.30700000000E+07; -0.952636     ;-0.0123434    
   6.30718750000E+07; -0.95514      ;-0.0105445    
   6.30737500000E+07; -0.955157     ;-0.00943705   
   6.30756250000E+07; -0.953509     ;-0.00874988   
   6.30775000000E+07; -0.955388     ;-0.00604114   
   6.30793750000E+07; -0.954213     ;-0.00460564   
   6.30812500000E+07; -0.955475     ;-0.00314601   
   6.30831250000E+07; -0.952563     ;-0.00317649   
   6.30850000000E+07; -0.953648     ;-0.00122363   
   6.30868750000E+07; -0.954047     ;-0.0021341    
   6.30887500000E+07; -0.954981     ; 0.00186292   
   6.30906250000E+07; -0.955498     ; 0.00252454   
   6.30925000000E+07; -0.954017     ; 0.00400415   
   6.30943750000E+07; -0.956698     ; 0.00677151   
   6.30962500000E+07; -0.952438     ; 0.00848327   
   6.30981250000E+07; -0.953805     ; 0.00784447   
   6.31000000000E+07; -0.955406     ; 0.0103024    
   6.31018750000E+07; -0.953735     ; 0.0132268    
   6.31037500000E+07; -0.953261     ; 0.0126573    
   6.31056250000E+07; -0.954165     ; 0.0124197    
   6.31075000000E+07; -0.962446     ; 0.0136256    
   6.31093750000E+07; -0.958046     ; 0.01652      
   6.31112500000E+07; -0.953078     ; 0.0168082    
   6.31131250000E+07; -0.959825     ; 0.0166689    
   6.31150000000E+07; -0.9561       ; 0.0199475    
   6.31168750000E+07; -0.957348     ; 0.0225789    
   6.31187500000E+07; -0.951459     ; 0.0242223    
   6.31206250000E+07; -0.956827     ; 0.0229329    
   6.31225000000E+07; -0.956051     ; 0.0254123    
   6.31243750000E+07; -0.955011     ; 0.0268031    
   6.31262500000E+07; -0.956653     ; 0.0283826    
   6.31281250000E+07; -0.956084     ; 0.0315863    
   6.31300000000E+07; -0.955211     ; 0.0317332    
   6.31318750000E+07; -0.954928     ; 0.0316632    
   6.31337500000E+07; -0.95624      ; 0.0339791    
   6.31356250000E+07; -0.95487      ; 0.0350971    
   6.31375000000E+07; -0.953984     ; 0.0356465    
   6.31393750000E+07; -0.954822     ; 0.0375087    
   6.31412500000E+07; -0.954834     ; 0.0385108    
   6.31431250000E+07; -0.955628     ; 0.0401148    
   6.31450000000E+07; -0.961102     ; 0.0420216    
   6.31468750000E+07; -0.958007     ; 0.0449726    
   6.31487500000E+07; -0.95393      ; 0.0430966    
   6.31506250000E+07; -0.955862     ; 0.0454737    
   6.31525000000E+07; -0.956836     ; 0.0455538    
   6.31543750000E+07; -0.955194     ; 0.0478832    
   6.31562500000E+07; -0.952237     ; 0.0481455    
   6.31581250000E+07; -0.956582     ; 0.0498143    
   6.31600000000E+07; -0.95634      ; 0.0514936    
   6.31618750000E+07; -0.951218     ; 0.0522602    
   6.31637500000E+07; -0.955322     ; 0.0553976    
   6.31656250000E+07; -0.957141     ; 0.0554181    
   6.31675000000E+07; -0.953776     ; 0.0552238    
   6.31693750000E+07; -0.954363     ; 0.0572955    
   6.31712500000E+07; -0.954904     ; 0.0593046    
   6.31731250000E+07; -0.954868     ; 0.0617667    
   6.31750000000E+07; -0.956895     ; 0.0616687    
   6.31768750000E+07; -0.956082     ; 0.0639105    
   6.31787500000E+07; -0.952345     ; 0.0637048    
   6.31806250000E+07; -0.952968     ; 0.0658741    
   6.31825000000E+07; -0.954224     ; 0.065407     
   6.31843750000E+07; -0.954496     ; 0.0701475    
   6.31862500000E+07; -0.950849     ; 0.0686672    
   6.31881250000E+07; -0.95597      ; 0.0700827    
   6.31900000000E+07; -0.952814     ; 0.0708969    
   6.31918750000E+07; -0.953334     ; 0.0734399    
   6.31937500000E+07; -0.952422     ; 0.0742426    
   6.31956250000E+07; -0.953604     ; 0.0755413    
   6.31975000000E+07; -0.953112     ; 0.0751657    
   6.31993750000E+07; -0.953279     ; 0.0793402    
   6.32012500000E+07; -0.948985     ; 0.0791538    
   6.32031250000E+07; -0.953964     ; 0.0822718    
   6.32050000000E+07; -0.950575     ; 0.0809261    
   6.32068750000E+07; -0.951246     ; 0.0835867    
   6.32087500000E+07; -0.953576     ; 0.0825638    
   6.32106250000E+07; -0.953001     ; 0.0878411    
   6.32125000000E+07; -0.95156      ; 0.0860222    
   6.32143750000E+07; -0.950976     ; 0.0883825    
   6.32162500000E+07; -0.95277      ; 0.0882442    
   6.32181250000E+07; -0.952929     ; 0.0906349    
   6.32200000000E+07; -0.952106     ; 0.0898331    
   6.32218750000E+07; -0.952052     ; 0.0939644    
   6.32237500000E+07; -0.950353     ; 0.0922782    
   6.32256250000E+07; -0.951873     ; 0.0958246    
   6.32275000000E+07; -0.950597     ; 0.0971986    
   6.32293750000E+07; -0.950823     ; 0.0972413    
   6.32312500000E+07; -0.951276     ; 0.0998972    
   6.32331250000E+07; -0.954007     ; 0.0984915    
   6.32350000000E+07; -0.950579     ; 0.101838     
   6.32368750000E+07; -0.949564     ; 0.101697     
   6.32387500000E+07; -0.951772     ; 0.102034     
   6.32406250000E+07; -0.948925     ; 0.104983     
   6.32425000000E+07; -0.950278     ; 0.105517     
   6.32443750000E+07; -0.948443     ; 0.106926     
   6.32462500000E+07; -0.951145     ; 0.107348     
   6.32481250000E+07; -0.950006     ; 0.111339     
   6.32500000000E+07; -0.951909     ; 0.111116     
   6.32518750000E+07; -0.949818     ; 0.110409     
   6.32537500000E+07; -0.949199     ; 0.113141     
   6.32556250000E+07; -0.947885     ; 0.113611     
   6.32575000000E+07; -0.948758     ; 0.115218     
   6.32593750000E+07; -0.947245     ; 0.115641     
   6.32612500000E+07; -0.948239     ; 0.117225     
   6.32631250000E+07; -0.948171     ; 0.117999     
   6.32650000000E+07; -0.946401     ; 0.119967     
   6.32668750000E+07; -0.950211     ; 0.120781     
   6.32687500000E+07; -0.948814     ; 0.121664     
   6.32706250000E+07; -0.948031     ; 0.124178     
   6.32725000000E+07; -0.946057     ; 0.123759     
   6.32743750000E+07; -0.949185     ; 0.123702     
   6.32762500000E+07; -0.947125     ; 0.130537     
   6.32781250000E+07; -0.947469     ; 0.127255     
   6.32800000000E+07; -0.949235     ; 0.129224     
   6.32818750000E+07; -0.94835      ; 0.129931     
   6.32837500000E+07; -0.946267     ; 0.132328     
   6.32856250000E+07; -0.946348     ; 0.13322      
   6.32875000000E+07; -0.947227     ; 0.133309     
   6.32893750000E+07; -0.946828     ; 0.136085     
   6.32912500000E+07; -0.946022     ; 0.136808     
   6.32931250000E+07; -0.94538      ; 0.138322     
   6.32950000000E+07; -0.94544      ; 0.139572     
   6.32968750000E+07; -0.94532      ; 0.140071     
   6.32987500000E+07; -0.947808     ; 0.141745     
   6.33006250000E+07; -0.945783     ; 0.141158     
   6.33025000000E+07; -0.945356     ; 0.144354     
   6.33043750000E+07; -0.944353     ; 0.145281     
   6.33062500000E+07; -0.946748     ; 0.145087     
   6.33081250000E+07; -0.945406     ; 0.147364     
   6.33100000000E+07; -0.944792     ; 0.148051     
   6.33118750000E+07; -0.943253     ; 0.14914      
   6.33137500000E+07; -0.943271     ; 0.149683     
   6.33156250000E+07; -0.944078     ; 0.152318     
   6.33175000000E+07; -0.946477     ; 0.153623     
   6.33193750000E+07; -0.945516     ; 0.152913     
   6.33212500000E+07; -0.944348     ; 0.157007     
   6.33231250000E+07; -0.943657     ; 0.15757      
   6.33250000000E+07; -0.943093     ; 0.156845     
   6.33268750000E+07; -0.942706     ; 0.158977     
   6.33287500000E+07; -0.940478     ; 0.156091     
   6.33306250000E+07; -0.943112     ; 0.160776     
   6.33325000000E+07; -0.942888     ; 0.160714     
   6.33343750000E+07; -0.942035     ; 0.164381     
   6.33362500000E+07; -0.939905     ; 0.162739     
   6.33381250000E+07; -0.940176     ; 0.166725     
   6.33400000000E+07; -0.942375     ; 0.167537     
   6.33418750000E+07; -0.940565     ; 0.167693     
   6.33437500000E+07; -0.940764     ; 0.169321     
   6.33456250000E+07; -0.941461     ; 0.169715     
   6.33475000000E+07; -0.941131     ; 0.172736     
   6.33493750000E+07; -0.936399     ; 0.172485     
   6.33512500000E+07; -0.940748     ; 0.174444     
   6.33531250000E+07; -0.939701     ; 0.175714     
   6.33550000000E+07; -0.940981     ; 0.175343     
   6.33568750000E+07; -0.939015     ; 0.17714      
   6.33587500000E+07; -0.940908     ; 0.178223     
   6.33606250000E+07; -0.937215     ; 0.176758     
   6.33625000000E+07; -0.939453     ; 0.180122     
   6.33643750000E+07; -0.939387     ; 0.183819     
   6.33662500000E+07; -0.938305     ; 0.183181     
   6.33681250000E+07; -0.933248     ; 0.182945     
   6.33700000000E+07; -0.939081     ; 0.183763     
   6.33718750000E+07; -0.938442     ; 0.186602     
   6.33737500000E+07; -0.938386     ; 0.187079     
   6.33756250000E+07; -0.938204     ; 0.188295     
   6.33775000000E+07; -0.936826     ; 0.189646     
   6.33793750000E+07; -0.9347       ; 0.189311     
   6.33812500000E+07; -0.934786     ; 0.192807     
   6.33831250000E+07; -0.936232     ; 0.192656     
   6.33850000000E+07; -0.933463     ; 0.192405     
   6.33868750000E+07; -0.938186     ; 0.193532     
   6.33887500000E+07; -0.936513     ; 0.19528      
   6.33906250000E+07; -0.934708     ; 0.196903     
   6.33925000000E+07; -0.934076     ; 0.197912     
   6.33943750000E+07; -0.936073     ; 0.198025     
   6.33962500000E+07; -0.934837     ; 0.200434     
   6.33981250000E+07; -0.935198     ; 0.200657     
   6.34000000000E+07; -0.934426     ; 0.204539     
   6.34018750000E+07; -0.934582     ; 0.20364      
   6.34037500000E+07; -0.934906     ; 0.205862     
   6.34056250000E+07; -0.934452     ; 0.205604     
   6.34075000000E+07; -0.932913     ; 0.205865     
   6.34093750000E+07; -0.934979     ; 0.207685     
   6.34112500000E+07; -0.933759     ; 0.208912     
   6.34131250000E+07; -0.933311     ; 0.2109       
   6.34150000000E+07; -0.93107      ; 0.212084     
   6.34168750000E+07; -0.934346     ; 0.211556     
   6.34187500000E+07; -0.931549     ; 0.213821     
   6.34206250000E+07; -0.931339     ; 0.214443     
   6.34225000000E+07; -0.933168     ; 0.214305     
   6.34243750000E+07; -0.931844     ; 0.215376     
   6.34262500000E+07; -0.929469     ; 0.217055     
   6.34281250000E+07; -0.931662     ; 0.218486     
   6.34300000000E+07; -0.930696     ; 0.220404     
   6.34318750000E+07; -0.930832     ; 0.223611     
   6.34337500000E+07; -0.930368     ; 0.222507     
   6.34356250000E+07; -0.929229     ; 0.223791     
   6.34375000000E+07; -0.929277     ; 0.225519     
   6.34393750000E+07; -0.928303     ; 0.22566      
   6.34412500000E+07; -0.930438     ; 0.225426     
   6.34431250000E+07; -0.928325     ; 0.228289     
   6.34450000000E+07; -0.926023     ; 0.228077     
   6.34468750000E+07; -0.927529     ; 0.229331     
   6.34487500000E+07; -0.928406     ; 0.230607     
   6.34506250000E+07; -0.925918     ; 0.231425     
   6.34525000000E+07; -0.92839      ; 0.234094     
   6.34543750000E+07; -0.927769     ; 0.234012     
   6.34562500000E+07; -0.923933     ; 0.234518     
   6.34581250000E+07; -0.926552     ; 0.237265     
   6.34600000000E+07; -0.926591     ; 0.239657     
   6.34618750000E+07; -0.924868     ; 0.237423     
   6.34637500000E+07; -0.924989     ; 0.240785     
   6.34656250000E+07; -0.925582     ; 0.240556     
   6.34675000000E+07; -0.925426     ; 0.244614     
   6.34693750000E+07; -0.925654     ; 0.242077     
   6.34712500000E+07; -0.923847     ; 0.244105     
   6.34731250000E+07; -0.924331     ; 0.244834     
   6.34750000000E+07; -0.921624     ; 0.246478     
   6.34768750000E+07; -0.925478     ; 0.246644     
   6.34787500000E+07; -0.922194     ; 0.248029     
   6.34806250000E+07; -0.921637     ; 0.24807      
   6.34825000000E+07; -0.923265     ; 0.249934     
   6.34843750000E+07; -0.922434     ; 0.252968     
   6.34862500000E+07; -0.921078     ; 0.252836     
   6.34881250000E+07; -0.921621     ; 0.253434     
   6.34900000000E+07; -0.921425     ; 0.254621     
   6.34918750000E+07; -0.921588     ; 0.256265     
   6.34937500000E+07; -0.920356     ; 0.258398     
   6.34956250000E+07; -0.919922     ; 0.256027     
   6.34975000000E+07; -0.919422     ; 0.258211     
   6.34993750000E+07; -0.918889     ; 0.260975     
   6.35012500000E+07; -0.920263     ; 0.259928     
   6.35031250000E+07; -0.919319     ; 0.263562     
   6.35050000000E+07; -0.91545      ; 0.262538     
   6.35068750000E+07; -0.918708     ; 0.263044     
   6.35087500000E+07; -0.916643     ; 0.265363     
   6.35106250000E+07; -0.917409     ; 0.266734     
   6.35125000000E+07; -0.917039     ; 0.267223     
   6.35143750000E+07; -0.918458     ; 0.267871     
   6.35162500000E+07; -0.915102     ; 0.269211     
   6.35181250000E+07; -0.918207     ; 0.270887     
   6.35200000000E+07; -0.916519     ; 0.273099     
   6.35218750000E+07; -0.916073     ; 0.274022     
   6.35237500000E+07; -0.91781      ; 0.274825     
   6.35256250000E+07; -0.916845     ; 0.27528      
   6.35275000000E+07; -0.914535     ; 0.277504     
   6.35293750000E+07; -0.91488      ; 0.27599      
   6.35312500000E+07; -0.915868     ; 0.278692     
   6.35331250000E+07; -0.914383     ; 0.279634     
   6.35350000000E+07; -0.913232     ; 0.279391     
   6.35368750000E+07; -0.916067     ; 0.279964     
   6.35387500000E+07; -0.914026     ; 0.283192     
   6.35406250000E+07; -0.910392     ; 0.28028      
   6.35425000000E+07; -0.912836     ; 0.28539      
   6.35443750000E+07; -0.911636     ; 0.285778     
   6.35462500000E+07; -0.911981     ; 0.287626     
   6.35481250000E+07; -0.909046     ; 0.287367     
   6.35500000000E+07; -0.911322     ; 0.289383     
   6.35518750000E+07; -0.911907     ; 0.291594     
   6.35537500000E+07; -0.908026     ; 0.290532     
   6.35556250000E+07; -0.910881     ; 0.29202      
   6.35575000000E+07; -0.909954     ; 0.291594     
   6.35593750000E+07; -0.90965      ; 0.294767     
   6.35612500000E+07; -0.910274     ; 0.294653     
   6.35631250000E+07; -0.908619     ; 0.294253     
   6.35650000000E+07; -0.906408     ; 0.297105     
   6.35668750000E+07; -0.90854      ; 0.299786     
   6.35687500000E+07; -0.908191     ; 0.301533     
   6.35706250000E+07; -0.908343     ; 0.299774     
   6.35725000000E+07; -0.908212     ; 0.300682     
   6.35743750000E+07; -0.907764     ; 0.303528     
   6.35762500000E+07; -0.906571     ; 0.303402     
   6.35781250000E+07; -0.906513     ; 0.304543     
   6.35800000000E+07; -0.906671     ; 0.305656     
   6.35818750000E+07; -0.905368     ; 0.306645     
   6.35837500000E+07; -0.905636     ; 0.30815      
   6.35856250000E+07; -0.905156     ; 0.30835      
   6.35875000000E+07; -0.902821     ; 0.308685     
   6.35893750000E+07; -0.904552     ; 0.311191     
   6.35912500000E+07; -0.904022     ; 0.311571     
   6.35931250000E+07; -0.903133     ; 0.314873     
   6.35950000000E+07; -0.902814     ; 0.314124     
   6.35968750000E+07; -0.902606     ; 0.31568      
   6.35987500000E+07; -0.901386     ; 0.316978     
   6.36006250000E+07; -0.9028       ; 0.317653     
   6.36025000000E+07; -0.901273     ; 0.319206     
   6.36043750000E+07; -0.900602     ; 0.31778      
   6.36062500000E+07; -0.897746     ; 0.319336     
   6.36081250000E+07; -0.900709     ; 0.321539     
   6.36100000000E+07; -0.899898     ; 0.321946     
   6.36118750000E+07; -0.898893     ; 0.322732     
   6.36137500000E+07; -0.899472     ; 0.3247       
   6.36156250000E+07; -0.898914     ; 0.323981     
   6.36175000000E+07; -0.896576     ; 0.327003     
   6.36193750000E+07; -0.898195     ; 0.32781      
   6.36212500000E+07; -0.898072     ; 0.328083     
   6.36231250000E+07; -0.895798     ; 0.329376     
   6.36250000000E+07; -0.895191     ; 0.331232     
   6.36268750000E+07; -0.897159     ; 0.328823     
   6.36287500000E+07; -0.896928     ; 0.334687     
   6.36306250000E+07; -0.895961     ; 0.334051     
   6.36325000000E+07; -0.896336     ; 0.333085     
   6.36343750000E+07; -0.894068     ; 0.335023     
   6.36362500000E+07; -0.894845     ; 0.337347     
   6.36381250000E+07; -0.894554     ; 0.336407     
   6.36400000000E+07; -0.894063     ; 0.34039      
   6.36418750000E+07; -0.893163     ; 0.339457     
   6.36437500000E+07; -0.892369     ; 0.340943     
   6.36456250000E+07; -0.892331     ; 0.343231     
   6.36475000000E+07; -0.892484     ; 0.34263      
   6.36493750000E+07; -0.890315     ; 0.342706     
   6.36512500000E+07; -0.891479     ; 0.343101     
   6.36531250000E+07; -0.891342     ; 0.348275     
   6.36550000000E+07; -0.891814     ; 0.346573     
   6.36568750000E+07; -0.888736     ; 0.34752      
   6.36587500000E+07; -0.891493     ; 0.349739     
   6.36606250000E+07; -0.889185     ; 0.348742     
   6.36625000000E+07; -0.890246     ; 0.351515     
   6.36643750000E+07; -0.889878     ; 0.352633     
   6.36662500000E+07; -0.886395     ; 0.352865     
   6.36681250000E+07; -0.88792      ; 0.353475     
   6.36700000000E+07; -0.888848     ; 0.355854     
   6.36718750000E+07; -0.88706      ; 0.35745      
   6.36737500000E+07; -0.883701     ; 0.356001     
   6.36756250000E+07; -0.885935     ; 0.357384     
   6.36775000000E+07; -0.885028     ; 0.358021     
   6.36793750000E+07; -0.885056     ; 0.358585     
   6.36812500000E+07; -0.885223     ; 0.361166     
   6.36831250000E+07; -0.885529     ; 0.359786     
   6.36850000000E+07; -0.884545     ; 0.364648     
   6.36868750000E+07; -0.883018     ; 0.363299     
   6.36887500000E+07; -0.883688     ; 0.364567     
   6.36906250000E+07; -0.88418      ; 0.369002     
   6.36925000000E+07; -0.884287     ; 0.366521     
   6.36943750000E+07; -0.882106     ; 0.366533     
   6.36962500000E+07; -0.881927     ; 0.370317     
   6.36981250000E+07; -0.879147     ; 0.368877     
   6.37000000000E+07; -0.880976     ; 0.370668     
   6.37018750000E+07; -0.88051      ; 0.371888     
   6.37037500000E+07; -0.87703      ; 0.371458     
   6.37056250000E+07; -0.878945     ; 0.373419     
   6.37075000000E+07; -0.879524     ; 0.375362     
   6.37093750000E+07; -0.875762     ; 0.374568     
   6.37112500000E+07; -0.879471     ; 0.376045     
   6.37131250000E+07; -0.877177     ; 0.376568     
   6.37150000000E+07; -0.875932     ; 0.378702     
   6.37168750000E+07; -0.878819     ; 0.37793      
   6.37187500000E+07; -0.876878     ; 0.381029     
   6.37206250000E+07; -0.875278     ; 0.381153     
   6.37225000000E+07; -0.874429     ; 0.381977     
   6.37243750000E+07; -0.876595     ; 0.385072     
   6.37262500000E+07; -0.871952     ; 0.383483     
   6.37281250000E+07; -0.876309     ; 0.384184     
   6.37300000000E+07; -0.874082     ; 0.386767     
   6.37318750000E+07; -0.872397     ; 0.388022     
   6.37337500000E+07; -0.872478     ; 0.388934     
   6.37356250000E+07; -0.873062     ; 0.392652     
   6.37375000000E+07; -0.872172     ; 0.389223     
   6.37393750000E+07; -0.87184      ; 0.391092     
   6.37412500000E+07; -0.871064     ; 0.393907     
   6.37431250000E+07; -0.872501     ; 0.393987     
   6.37450000000E+07; -0.871316     ; 0.394571     
   6.37468750000E+07; -0.86926      ; 0.396341     
   6.37487500000E+07; -0.870438     ; 0.397791     
   6.37506250000E+07; -0.869313     ; 0.397677     
   6.37525000000E+07; -0.869463     ; 0.399544     
   6.37543750000E+07; -0.865118     ; 0.397166     
   6.37562500000E+07; -0.867762     ; 0.398569     
   6.37581250000E+07; -0.867922     ; 0.401092     
   6.37600000000E+07; -0.86712      ; 0.402376     
   6.37618750000E+07; -0.865364     ; 0.401179     
   6.37637500000E+07; -0.866163     ; 0.40489      
   6.37656250000E+07; -0.863756     ; 0.405101     
   6.37675000000E+07; -0.86531      ; 0.405645     
   6.37693750000E+07; -0.864708     ; 0.406371     
   6.37712500000E+07; -0.862253     ; 0.406781     
   6.37731250000E+07; -0.863568     ; 0.409917     
   6.37750000000E+07; -0.865016     ; 0.408317     
   6.37768750000E+07; -0.861435     ; 0.411124     
   6.37787500000E+07; -0.864648     ; 0.411361     
   6.37806250000E+07; -0.861227     ; 0.413267     
   6.37825000000E+07; -0.861409     ; 0.416664     
   6.37843750000E+07; -0.859975     ; 0.414013     
   6.37862500000E+07; -0.860131     ; 0.41601      
   6.37881250000E+07; -0.859253     ; 0.416357     
   6.37900000000E+07; -0.856929     ; 0.416764     
   6.37918750000E+07; -0.858407     ; 0.419286     
   6.37937500000E+07; -0.856914     ; 0.41684      
   6.37956250000E+07; -0.857735     ; 0.419701     
   6.37975000000E+07; -0.859239     ; 0.420111     
   6.37993750000E+07; -0.857894     ; 0.423292     
   6.38012500000E+07; -0.854926     ; 0.422745     
   6.38031250000E+07; -0.856814     ; 0.424479     
   6.38050000000E+07; -0.856992     ; 0.423463     
   6.38068750000E+07; -0.853708     ; 0.424907     
   6.38087500000E+07; -0.855208     ; 0.427806     
   6.38106250000E+07; -0.85511      ; 0.427881     
   6.38125000000E+07; -0.853266     ; 0.428705     
   6.38143750000E+07; -0.851095     ; 0.43107      
   6.38162500000E+07; -0.852964     ; 0.431496     
   6.38181250000E+07; -0.851929     ; 0.432783     
   6.38200000000E+07; -0.850386     ; 0.431864     
   6.38218750000E+07; -0.85072      ; 0.43325      
   6.38237500000E+07; -0.849787     ; 0.436366     
   6.38256250000E+07; -0.849102     ; 0.435555     
   6.38275000000E+07; -0.849914     ; 0.438233     
   6.38293750000E+07; -0.847988     ; 0.436131     
   6.38312500000E+07; -0.848593     ; 0.437888     
   6.38331250000E+07; -0.847724     ; 0.440371     
   6.38350000000E+07; -0.847478     ; 0.442751     
   6.38368750000E+07; -0.845796     ; 0.439405     
   6.38387500000E+07; -0.846298     ; 0.442285     
   6.38406250000E+07; -0.846833     ; 0.443005     
   6.38425000000E+07; -0.844104     ; 0.443762     
   6.38443750000E+07; -0.846247     ; 0.443346     
   6.38462500000E+07; -0.844426     ; 0.44506      
   6.38481250000E+07; -0.844        ; 0.447196     
   6.38500000000E+07; -0.84587      ; 0.446605     
   6.38518750000E+07; -0.842682     ; 0.448485     
   6.38537500000E+07; -0.842374     ; 0.450017     
   6.38556250000E+07; -0.841295     ; 0.450373     
   6.38575000000E+07; -0.84223      ; 0.452498     
   6.38593750000E+07; -0.841525     ; 0.453739     
   6.38612500000E+07; -0.841765     ; 0.454136     
   6.38631250000E+07; -0.838362     ; 0.4548       
   6.38650000000E+07; -0.84074      ; 0.457136     
   6.38668750000E+07; -0.839428     ; 0.456487     
   6.38687500000E+07; -0.83819      ; 0.455188     
   6.38706250000E+07; -0.837088     ; 0.459183     
   6.38725000000E+07; -0.835467     ; 0.458545     
   6.38743750000E+07; -0.837414     ; 0.459324     
   6.38762500000E+07; -0.836759     ; 0.46196      
   6.38781250000E+07; -0.833829     ; 0.460514     
   6.38800000000E+07; -0.834957     ; 0.463039     
   6.38818750000E+07; -0.835135     ; 0.463717     
   6.38837500000E+07; -0.83332      ; 0.464035     
   6.38856250000E+07; -0.833534     ; 0.465505     
   6.38875000000E+07; -0.833533     ; 0.465933     
   6.38893750000E+07; -0.832204     ; 0.465979     
   6.38912500000E+07; -0.832849     ; 0.46742      
   6.38931250000E+07; -0.830575     ; 0.469541     
   6.38950000000E+07; -0.82829      ; 0.468405     
   6.38968750000E+07; -0.831662     ; 0.471381     
   6.38987500000E+07; -0.829996     ; 0.473441     
   6.39006250000E+07; -0.828669     ; 0.47268      
   6.39025000000E+07; -0.830359     ; 0.47363      
   6.39043750000E+07; -0.828338     ; 0.474864     
   6.39062500000E+07; -0.828573     ; 0.476175     
   6.39081250000E+07; -0.826831     ; 0.476676     
   6.39100000000E+07; -0.827819     ; 0.477052     
   6.39118750000E+07; -0.825705     ; 0.478462     
   6.39137500000E+07; -0.826013     ; 0.478273     
   6.39156250000E+07; -0.824302     ; 0.481066     
   6.39175000000E+07; -0.824942     ; 0.483105     
   6.39193750000E+07; -0.822498     ; 0.481553     
   6.39212500000E+07; -0.825458     ; 0.481281     
   6.39231250000E+07; -0.822423     ; 0.485226     
   6.39250000000E+07; -0.823929     ; 0.483315     
   6.39268750000E+07; -0.822029     ; 0.48565      
   6.39287500000E+07; -0.820964     ; 0.485697     
   6.39306250000E+07; -0.819087     ; 0.487234     
   6.39325000000E+07; -0.820615     ; 0.488015     
   6.39343750000E+07; -0.821405     ; 0.488613     
   6.39362500000E+07; -0.818799     ; 0.489476     
   6.39381250000E+07; -0.816795     ; 0.490034     
   6.39400000000E+07; -0.820467     ; 0.490491     
   6.39418750000E+07; -0.817268     ; 0.494514     
   6.39437500000E+07; -0.816742     ; 0.492823     
   6.39456250000E+07; -0.818845     ; 0.492765     
   6.39475000000E+07; -0.81685      ; 0.494886     
   6.39493750000E+07; -0.815068     ; 0.498663     
   6.39512500000E+07; -0.812474     ; 0.496279     
   6.39531250000E+07; -0.815022     ; 0.498545     
   6.39550000000E+07; -0.814707     ; 0.499541     
   6.39568750000E+07; -0.813624     ; 0.499514     
   6.39587500000E+07; -0.812573     ; 0.500765     
   6.39606250000E+07; -0.812548     ; 0.502612     
   6.39625000000E+07; -0.811359     ; 0.504404     
   6.39643750000E+07; -0.810394     ; 0.503902     
   6.39662500000E+07; -0.812275     ; 0.50271      
   6.39681250000E+07; -0.809504     ; 0.506321     
   6.39700000000E+07; -0.808436     ; 0.505791     
   6.39718750000E+07; -0.808144     ; 0.507607     
   6.39737500000E+07; -0.808304     ; 0.507357     
   6.39756250000E+07; -0.809056     ; 0.510145     
   6.39775000000E+07; -0.806094     ; 0.509316     
   6.39793750000E+07; -0.80718      ; 0.511405     
   6.39812500000E+07; -0.807471     ; 0.513424     
   6.39831250000E+07; -0.807108     ; 0.513326     
   6.39850000000E+07; -0.806661     ; 0.512968     
   6.39868750000E+07; -0.803901     ; 0.516087     
   6.39887500000E+07; -0.801575     ; 0.51452      
   6.39906250000E+07; -0.803779     ; 0.515975     
   6.39925000000E+07; -0.803201     ; 0.518038     
   6.39943750000E+07; -0.800376     ; 0.516818     
   6.39962500000E+07; -0.80168      ; 0.517874     
   6.39981250000E+07; -0.799958     ; 0.519131     
   6.40000000000E+07; -0.80142      ; 0.520829     
